! Freq(MHz)     Int(K)
107516.4130       0.00 
107516.6570       0.00 
107516.9010       0.00 
107517.1450       0.00 
107517.3890       0.00 
107517.6330       0.00 
107517.8770       0.00 
107518.1210       0.00 
107518.3650       0.00 
107518.6090       0.00 
107518.8530       0.00 
107519.0970       0.00 
107519.3410       0.00 
107519.5850       0.00 
107519.8290       0.00 
107520.0730       0.00 
107520.3170       0.00 
107520.5610       0.00 
107520.8050       0.00 
107521.0490       0.00 
107521.2930       0.00 
107521.5370       0.00 
107521.7810       0.00 
107522.0250       0.00 
107522.2690       0.00 
107522.5130       0.00 
107522.7570       0.00 
107523.0010       0.00 
107523.2450       0.00 
107523.4890       0.00 
107523.7330       0.00 
107523.9770       0.00 
107524.2210       0.00 
107524.4650       0.00 
107524.7090       0.00 
107524.9530       0.00 
107525.1970       0.00 
107525.4410       0.00 
107525.6850       0.00 
107525.9290       0.00 
107526.1730       0.00 
107526.4170       0.00 
107526.6610       0.00 
107526.9050       0.00 
107527.1490       0.00 
107527.3930       0.00 
107527.6370       0.00 
107527.8810       0.00 
107528.1250       0.00 
107528.3690       0.00 
107528.6130       0.00 
107528.8570       0.00 
107529.1010       0.00 
107529.3450       0.00 
107529.5890       0.00 
107529.8330       0.00 
107530.0770       0.00 
107530.3210       0.00 
107530.5650       0.00 
107530.8090       0.00 
107531.0530       0.00 
107531.2970       0.00 
107531.5410       0.00 
107531.7850       0.00 
107532.0290       0.00 
107532.2730       0.00 
107532.5170       0.00 
107532.7610       0.00 
107533.0050       0.00 
107533.2490       0.00 
107533.4930       0.00 
107533.7370       0.00 
107533.9810       0.00 
107534.2250       0.00 
107534.4690       0.00 
107534.7130       0.00 
107534.9570       0.00 
107535.2010       0.00 
107535.4450       0.00 
107535.6890       0.00 
107535.9330       0.00 
107536.1770       0.00 
107536.4210       0.00 
107536.6650       0.00 
107536.9090       0.00 
107537.1530       0.00 
107537.3970       0.00 
107537.6410       0.00 
107537.8850       0.00 
107538.1290       0.00 
107538.3730       0.00 
107538.6170       0.00 
107538.8610       0.00 
107539.1050       0.00 
107539.3490       0.00 
107539.5930       0.00 
107539.8370       0.00 
107540.0810       0.00 
107540.3250       0.00 
107540.5690       0.00 
107540.8130       0.00 
107541.0570       0.00 
107541.3010       0.00 
107541.5450       0.00 
107541.7890       0.00 
107542.0330       0.00 
107542.2770       0.00 
107542.5210       0.00 
107542.7650       0.00 
107543.0090       0.00 
107543.2530       0.00 
107543.4970       0.00 
107543.7410       0.00 
107543.9850       0.00 
107544.2290       0.00 
107544.4730       0.00 
107544.7170       0.00 
107544.9610       0.00 
107545.2050       0.00 
107545.4490       0.00 
107545.6930       0.00 
107545.9370       0.00 
107546.1810       0.00 
107546.4250       0.00 
107546.6690       0.00 
107546.9130       0.00 
107547.1570       0.00 
107547.4010       0.00 
107547.6450       0.00 
107547.8890       0.00 
107548.1330       0.00 
107548.3770       0.00 
107548.6210       0.00 
107548.8650       0.00 
107549.1090       0.00 
107549.3530       0.00 
107549.5970       0.00 
107549.8410       0.00 
107550.0850       0.00 
107550.3290       0.00 
107550.5730       0.00 
107550.8170       0.00 
107551.0610       0.00 
107551.3050       0.00 
107551.5490       0.00 
107551.7930       0.00 
107552.0370       0.00 
107552.2810       0.00 
107552.5250       0.00 
107552.7690       0.00 
107553.0130       0.00 
107553.2570       0.00 
107553.5010       0.00 
107553.7450       0.00 
107553.9890       0.00 
107554.2330       0.00 
107554.4770       0.00 
107554.7210       0.00 
107554.9650       0.00 
107555.2090       0.00 
107555.4530       0.00 
107555.6970       0.00 
107555.9410       0.00 
107556.1850       0.00 
107556.4290       0.00 
107556.6730       0.00 
107556.9170       0.00 
107557.1610       0.00 
107557.4050       0.00 
107557.6490       0.00 
107557.8930       0.00 
107558.1370       0.00 
107558.3810       0.00 
107558.6250       0.00 
107558.8690       0.00 
107559.1130       0.00 
107559.3570       0.00 
107559.6010       0.00 
107559.8450       0.00 
107560.0890       0.00 
107560.3330       0.00 
107560.5770       0.00 
107560.8210       0.00 
107561.0650       0.00 
107561.3090       0.00 
107561.5530       0.00 
107561.7970       0.00 
107562.0410       0.00 
107562.2850       0.00 
107562.5290       0.00 
107562.7730       0.00 
107563.0170       0.00 
107563.2610       0.00 
107563.5050       0.00 
107563.7490       0.00 
107563.9930       0.00 
107564.2370       0.00 
107564.4810       0.00 
107564.7250       0.00 
107564.9690       0.00 
107565.2130       0.00 
107565.4570       0.00 
107565.7010       0.00 
107565.9450       0.00 
107566.1890       0.00 
107566.4330       0.00 
107566.6770       0.00 
107566.9210       0.00 
107567.1650       0.00 
107567.4090       0.00 
107567.6530       0.00 
107567.8970       0.00 
107568.1410       0.00 
107568.3850       0.00 
107568.6290       0.00 
107568.8730       0.00 
107569.1170       0.00 
107569.3610       0.00 
107569.6050       0.00 
107569.8490       0.00 
107570.0930       0.00 
107570.3370       0.00 
107570.5810       0.00 
107570.8250       0.00 
107571.0690       0.00 
107571.3130       0.00 
107571.5570       0.00 
107571.8010       0.00 
107572.0450       0.00 
107572.2890       0.00 
107572.5330       0.00 
107572.7770       0.00 
107573.0210       0.00 
107573.2650       0.00 
107573.5090       0.00 
107573.7530       0.00 
107573.9970       0.00 
107574.2410       0.00 
107574.4850       0.00 
107574.7290       0.00 
107574.9730       0.00 
107575.2170       0.00 
107575.4610       0.00 
107575.7050       0.00 
107575.9490       0.00 
107576.1930       0.00 
107576.4370       0.00 
107576.6810       0.00 
107576.9250       0.00 
107577.1690       0.00 
107577.4130       0.00 
107577.6570       0.00 
107577.9010       0.00 
107578.1450       0.00 
107578.3890       0.00 
107578.6330       0.00 
107578.8770       0.00 
107579.1210       0.00 
107579.3650       0.00 
107579.6090       0.00 
107579.8530       0.00 
107580.0970       0.00 
107580.3410       0.00 
107580.5850       0.00 
107580.8290       0.00 
107581.0730       0.00 
107581.3170       0.00 
107581.5610       0.00 
107581.8050       0.00 
107582.0490       0.00 
107582.2930       0.00 
107582.5370       0.00 
107582.7810       0.00 
107583.0250       0.00 
107583.2690       0.00 
107583.5130       0.00 
107583.7570       0.00 
107584.0010       0.00 
107584.2450       0.00 
107584.4890       0.00 
107584.7330       0.00 
107584.9770       0.00 
107585.2210       0.00 
107585.4650       0.00 
107585.7090       0.00 
107585.9530       0.00 
107586.1970       0.00 
107586.4410       0.00 
107586.6850       0.00 
107586.9290       0.00 
107587.1730       0.00 
107587.4170       0.00 
107587.6610       0.00 
107587.9050       0.00 
107588.1490       0.00 
107588.3930       0.00 
107588.6370       0.00 
107588.8810       0.00 
107589.1250       0.00 
107589.3690       0.00 
107589.6130       0.00 
107589.8570       0.00 
107590.1010       0.00 
107590.3450       0.00 
107590.5890       0.00 
107590.8330       0.00 
107591.0770       0.00 
107591.3210       0.00 
107591.5650       0.00 
107591.8090       0.00 
107592.0530       0.00 
107592.2970       0.00 
107592.5410       0.00 
107592.7850       0.00 
107593.0290       0.00 
107593.2730       0.00 
107593.5170       0.00 
107593.7610       0.00 
107594.0050       0.00 
107594.2490       0.00 
107594.4930       0.00 
107594.7370       0.00 
107594.9810       0.00 
107595.2250       0.00 
107595.4690       0.00 
107595.7130       0.00 
107595.9570       0.00 
107596.2010       0.00 
107596.4450       0.00 
107596.6890       0.00 
107596.9330       0.00 
107597.1770       0.00 
107597.4210       0.00 
107597.6650       0.00 
107597.9090       0.00 
107598.1530       0.00 
107598.3970       0.00 
107598.6410       0.00 
107598.8850       0.00 
107599.1290       0.00 
107599.3730       0.00 
107599.6170       0.00 
107599.8610       0.00 
107600.1050       0.00 
107600.3490       0.00 
107600.5930       0.00 
107600.8370       0.00 
107601.0810       0.00 
107601.3250       0.00 
107601.5690       0.00 
107601.8130       0.00 
107602.0570       0.00 
107602.3010       0.00 
107602.5450       0.00 
107602.7890       0.00 
107603.0330       0.00 
107603.2770       0.00 
107603.5210       0.00 
107603.7650       0.00 
107604.0090       0.00 
107604.2530       0.00 
107604.4970       0.00 
107604.7410       0.00 
107604.9850       0.00 
107605.2290       0.00 
107605.4730       0.00 
107605.7170       0.00 
107605.9610       0.00 
107606.2050       0.00 
107606.4490       0.00 
107606.6930       0.00 
107606.9370       0.00 
107607.1810       0.00 
107607.4250       0.00 
107607.6690       0.00 
107607.9130       0.00 
107608.1570       0.00 
107608.4010       0.00 
107608.6450       0.00 
107608.8890       0.00 
107609.1330       0.00 
107609.3770       0.00 
107609.6210       0.00 
107609.8650       0.00 
107610.1090       0.00 
107610.3530       0.00 
107610.5970       0.00 
107610.8410       0.00 
107611.0850       0.00 
107611.3290       0.00 
107611.5730       0.00 
107611.8170       0.00 
107612.0610       0.00 
107612.3050       0.00 
107612.5490       0.00 
107612.7930       0.00 
107613.0370       0.00 
107613.2810       0.00 
107613.5250       0.00 
107613.7690       0.00 
107614.0130       0.00 
107614.2570       0.00 
107614.5010       0.00 
107614.7450       0.00 
107614.9890       0.00 
107615.2330       0.00 
107615.4770       0.00 
107615.7210       0.00 
107615.9650       0.00 
107616.2090       0.00 
107616.4530       0.00 
107616.6970       0.00 
107616.9410       0.00 
107617.1850       0.00 
107617.4290       0.00 
107617.6730       0.00 
107617.9170       0.00 
107618.1610       0.00 
107618.4050       0.00 
107618.6490       0.00 
107618.8930       0.00 
107619.1370       0.00 
107619.3810       0.00 
107619.6250       0.00 
107619.8690       0.00 
107620.1130       0.00 
107620.3570       0.00 
107620.6010       0.00 
107620.8450       0.00 
107621.0890       0.00 
107621.3330       0.00 
107621.5770       0.00 
107621.8210       0.00 
107622.0650       0.00 
107622.3090       0.00 
107622.5530       0.00 
107622.7970       0.00 
107623.0410       0.00 
107623.2850       0.00 
107623.5290       0.00 
107623.7730       0.00 
107624.0170       0.00 
107624.2610       0.00 
107624.5050       0.00 
107624.7490       0.00 
107624.9930       0.00 
107625.2370       0.00 
107625.4810       0.00 
107625.7250       0.00 
107625.9690       0.00 
107626.2130       0.00 
107626.4570       0.00 
107626.7010       0.00 
107626.9450       0.00 
107627.1890       0.00 
107627.4330       0.00 
107627.6770       0.00 
107627.9210       0.00 
107628.1650       0.00 
107628.4090       0.00 
107628.6530       0.00 
107628.8970       0.00 
107629.1410       0.00 
107629.3850       0.00 
107629.6290       0.00 
107629.8730       0.00 
107630.1170       0.00 
107630.3610       0.00 
107630.6050       0.00 
107630.8490       0.00 
107631.0930       0.00 
107631.3370       0.00 
107631.5810       0.00 
107631.8250       0.00 
107632.0690       0.00 
107632.3130       0.00 
107632.5570       0.00 
107632.8010       0.00 
107633.0450       0.00 
107633.2890       0.00 
107633.5330       0.00 
107633.7770       0.00 
107634.0210       0.00 
107634.2650       0.00 
107634.5090       0.00 
107634.7530       0.00 
107634.9970       0.00 
107635.2410       0.00 
107635.4850       0.00 
107635.7290       0.00 
107635.9730       0.00 
107636.2170       0.00 
107636.4610       0.00 
107636.7050       0.00 
107636.9490       0.00 
107637.1930       0.00 
107637.4370       0.00 
107637.6810       0.00 
107637.9250       0.00 
107638.1690       0.00 
107638.4130       0.00 
107638.6570       0.00 
107638.9010       0.00 
107639.1450       0.00 
107639.3890       0.00 
107639.6330       0.00 
107639.8770       0.00 
107640.1210       0.00 
107640.3650       0.00 
107640.6090       0.00 
107640.8530       0.00 
107641.0970       0.00 
107641.3410       0.00 
107641.5850       0.00 
107641.8290       0.00 
107642.0730       0.00 
107642.3170       0.00 
107642.5610       0.00 
107642.8050       0.00 
107643.0490       0.00 
107643.2930       0.00 
107643.5370       0.00 
107643.7810       0.00 
107644.0250       0.00 
107644.2690       0.00 
107644.5130       0.00 
107644.7570       0.00 
107645.0010       0.00 
107645.2450       0.00 
107645.4890       0.00 
107645.7330       0.00 
107645.9770       0.00 
107646.2210       0.00 
107646.4650       0.00 
107646.7090       0.00 
107646.9530       0.00 
107647.1970       0.00 
107647.4410       0.00 
107647.6850       0.00 
107647.9290       0.00 
107648.1730       0.00 
107648.4170       0.00 
107648.6610       0.00 
107648.9050       0.00 
107649.1490       0.00 
107649.3930       0.00 
107649.6370       0.00 
107649.8810       0.00 
107650.1250       0.00 
107650.3690       0.00 
107650.6130       0.00 
107650.8570       0.00 
107651.1010       0.00 
107651.3450       0.00 
107651.5890       0.00 
107651.8330       0.00 
107652.0770       0.00 
107652.3210       0.00 
107652.5650       0.00 
107652.8090       0.00 
107653.0530       0.00 
107653.2970       0.00 
107653.5410       0.00 
107653.7850       0.00 
107654.0290       0.00 
107654.2730       0.00 
107654.5170       0.00 
107654.7610       0.00 
107655.0050       0.00 
107655.2490       0.00 
107655.4930       0.00 
107655.7370       0.00 
107655.9810       0.00 
107656.2250       0.00 
107656.4690       0.00 
107656.7130       0.00 
107656.9570       0.00 
107657.2010       0.00 
107657.4450       0.00 
107657.6890       0.00 
107657.9330       0.00 
107658.1770       0.00 
107658.4210       0.00 
107658.6650       0.00 
107658.9090       0.00 
107659.1530       0.00 
107659.3970       0.00 
107659.6410       0.00 
107659.8850       0.00 
107660.1290       0.00 
107660.3730       0.00 
107660.6170       0.00 
107660.8610       0.00 
107661.1050       0.00 
107661.3490       0.00 
107661.5930       0.00 
107661.8370       0.00 
107662.0810       0.00 
107662.3250       0.00 
107662.5690       0.00 
107662.8130       0.00 
107663.0570       0.00 
107663.3010       0.00 
107663.5450       0.00 
107663.7890       0.00 
107664.0330       0.00 
107664.2770       0.00 
107664.5210       0.00 
107664.7650       0.00 
107665.0090       0.00 
107665.2530       0.00 
107665.4970       0.00 
107665.7410       0.00 
107665.9850       0.00 
107666.2290       0.00 
107666.4730       0.00 
107666.7170       0.00 
107666.9610       0.00 
107667.2050       0.00 
107667.4490       0.00 
107667.6930       0.00 
107667.9370       0.00 
107668.1810       0.00 
107668.4250       0.00 
107668.6690       0.00 
107668.9130       0.00 
107669.1570       0.00 
107669.4010       0.00 
107669.6450       0.00 
107669.8890       0.00 
107670.1330       0.00 
107670.3770       0.00 
107670.6210       0.00 
107670.8650       0.00 
107671.1090       0.00 
107671.3530       0.00 
107671.5970       0.00 
107671.8410       0.00 
107672.0850       0.00 
107672.3290       0.00 
107672.5730       0.00 
107672.8170       0.00 
107673.0610       0.00 
107673.3050       0.00 
107673.5490       0.00 
107673.7930       0.00 
107674.0370       0.00 
107674.2810       0.00 
107674.5250       0.00 
107674.7690       0.00 
107675.0130       0.00 
107675.2570       0.00 
107675.5010       0.00 
107675.7450       0.00 
107675.9890       0.00 
107676.2330       0.00 
107676.4770       0.00 
107676.7210       0.00 
107676.9650       0.00 
107677.2090       0.00 
107677.4530       0.00 
107677.6970       0.00 
107677.9410       0.00 
107678.1850       0.00 
107678.4290       0.00 
107678.6730       0.00 
107678.9170       0.00 
107679.1610       0.00 
107679.4050       0.00 
107679.6490       0.00 
107679.8930       0.00 
107680.1370       0.00 
107680.3810       0.00 
107680.6250       0.00 
107680.8690       0.00 
107681.1130       0.00 
107681.3570       0.00 
107681.6010       0.00 
107681.8450       0.00 
107682.0890       0.00 
107682.3330       0.00 
107682.5770       0.00 
107682.8210       0.00 
107683.0650       0.00 
107683.3090       0.00 
107683.5530       0.00 
107683.7970       0.00 
107684.0410       0.00 
107684.2850       0.00 
107684.5290       0.00 
107684.7730       0.00 
107685.0170       0.00 
107685.2610       0.00 
107685.5050       0.00 
107685.7490       0.00 
107685.9930       0.00 
107686.2370       0.00 
107686.4810       0.00 
107686.7250       0.00 
107686.9690       0.00 
107687.2130       0.00 
107687.4570       0.00 
107687.7010       0.00 
107687.9450       0.00 
107688.1890       0.00 
107688.4330       0.00 
107688.6770       0.00 
107688.9210       0.00 
107689.1650       0.00 
107689.4090       0.00 
107689.6530       0.00 
107689.8970       0.00 
107690.1410       0.00 
107690.3850       0.00 
107690.6290       0.00 
107690.8730       0.00 
107691.1170       0.00 
107691.3610       0.00 
107691.6050       0.00 
107691.8490       0.00 
107692.0930       0.00 
107692.3370       0.00 
107692.5810       0.00 
107692.8250       0.00 
107693.0690       0.00 
107693.3130       0.00 
107693.5570       0.00 
107693.8010       0.00 
107694.0450       0.00 
107694.2890       0.00 
107694.5330       0.00 
107694.7770       0.00 
107695.0210       0.00 
107695.2650       0.00 
107695.5090       0.00 
107695.7530       0.00 
107695.9970       0.00 
107696.2410       0.00 
107696.4850       0.00 
107696.7290       0.00 
107696.9730       0.00 
107697.2170       0.00 
107697.4610       0.00 
107697.7050       0.00 
107697.9490       0.00 
107698.1930       0.00 
107698.4370       0.00 
107698.6810       0.00 
107698.9250       0.00 
107699.1690       0.00 
107699.4130       0.00 
107699.6570       0.00 
107699.9010       0.00 
107700.1450       0.00 
107700.3890       0.00 
107700.6330       0.00 
107700.8770       0.00 
107701.1210       0.00 
107701.3650       0.00 
107701.6090       0.00 
107701.8530       0.00 
107702.0970       0.00 
107702.3410       0.00 
107702.5850       0.00 
107702.8290       0.00 
107703.0730       0.00 
107703.3170       0.00 
107703.5610       0.00 
107703.8050       0.00 
107704.0490       0.00 
107704.2930       0.00 
107704.5370       0.00 
107704.7810       0.00 
107705.0250       0.00 
107705.2690       0.00 
107705.5130       0.00 
107705.7570       0.00 
107706.0010       0.00 
107706.2450       0.00 
107706.4890       0.00 
107706.7330       0.00 
107706.9770       0.00 
107707.2210       0.00 
107707.4650       0.00 
107707.7090       0.00 
107707.9530       0.00 
107708.1970       0.00 
107708.4410       0.00 
107708.6850       0.00 
107708.9290       0.00 
107709.1730       0.00 
107709.4170       0.00 
107709.6610       0.00 
107709.9050       0.00 
107710.1490       0.00 
107710.3930       0.00 
107710.6370       0.00 
107710.8810       0.00 
107711.1250       0.00 
107711.3690       0.00 
107711.6130       0.00 
107711.8570       0.00 
107712.1010       0.00 
107712.3450       0.00 
107712.5890       0.00 
107712.8330       0.00 
107713.0770       0.00 
107713.3210       0.00 
107713.5650       0.00 
107713.8090       0.00 
107714.0530       0.00 
107714.2970       0.00 
107714.5410       0.00 
107714.7850       0.00 
107715.0290       0.00 
107715.2730       0.00 
107715.5170       0.00 
107715.7610       0.00 
107716.0050       0.00 
107716.2490       0.00 
107716.4930       0.00 
107716.7370       0.00 
107716.9810       0.00 
107717.2250       0.00 
107717.4690       0.00 
107717.7130       0.00 
107717.9570       0.00 
107718.2010       0.00 
107718.4450       0.00 
107718.6890       0.00 
107718.9330       0.00 
107719.1770       0.00 
107719.4210       0.00 
107719.6650       0.00 
107719.9090       0.00 
107720.1530       0.00 
107720.3970       0.00 
107720.6410       0.00 
107720.8850       0.00 
107721.1290       0.00 
107721.3730       0.00 
107721.6170       0.00 
107721.8610       0.00 
107722.1050       0.00 
107722.3490       0.00 
107722.5930       0.00 
107722.8370       0.00 
107723.0810       0.00 
107723.3250       0.00 
107723.5690       0.00 
107723.8130       0.00 
107724.0570       0.00 
107724.3010       0.00 
107724.5450       0.00 
107724.7890       0.00 
107725.0330       0.00 
107725.2770       0.00 
107725.5210       0.00 
107725.7650       0.00 
107726.0090       0.00 
107726.2530       0.00 
107726.4970       0.00 
107726.7410       0.00 
107726.9850       0.00 
107727.2290       0.00 
107727.4730       0.00 
107727.7170       0.00 
107727.9610       0.00 
107728.2050       0.00 
107728.4490       0.00 
107728.6930       0.00 
107728.9370       0.00 
107729.1810       0.00 
107729.4250       0.00 
107729.6690       0.00 
107729.9130       0.00 
107730.1570       0.00 
107730.4010       0.00 
107730.6450       0.00 
107730.8890       0.00 
107731.1330       0.00 
107731.3770       0.00 
107731.6210       0.00 
107731.8650       0.00 
107732.1090       0.00 
107732.3530       0.00 
107732.5970       0.00 
107732.8410       0.00 
107733.0850       0.00 
107733.3290       0.00 
107733.5730       0.00 
107733.8170       0.00 
107734.0610       0.00 
107734.3050       0.00 
107734.5490       0.00 
107734.7930       0.00 
107735.0370       0.00 
107735.2810       0.00 
107735.5250       0.00 
107735.7690       0.00 
107736.0130       0.00 
107736.2570       0.00 
107736.5010       0.00 
107736.7450       0.00 
107736.9890       0.00 
107737.2330       0.00 
107737.4770       0.00 
107737.7210       0.00 
107737.9650       0.00 
107738.2090       0.00 
107738.4530       0.00 
107738.6970       0.00 
107738.9410       0.00 
107739.1850       0.00 
107739.4290       0.00 
107739.6730       0.00 
107739.9170       0.00 
107740.1610       0.00 
107740.4050       0.00 
107740.6490       0.00 
107740.8930       0.00 
107741.1370       0.00 
107741.3810       0.00 
107741.6250       0.00 
107741.8690       0.00 
107742.1130       0.00 
107742.3570       0.00 
107742.6010       0.00 
107742.8450       0.00 
107743.0890       0.00 
107743.3330       0.00 
107743.5770       0.00 
107743.8210       0.00 
107744.0650       0.00 
107744.3090       0.00 
107744.5530       0.00 
107744.7970       0.00 
107745.0410       0.00 
107745.2850       0.00 
107745.5290       0.00 
107745.7730       0.00 
107746.0170       0.00 
107746.2610       0.00 
107746.5050       0.00 
107746.7490       0.00 
107746.9930       0.00 
107747.2370       0.00 
107747.4810       0.00 
107747.7250       0.00 
107747.9690       0.00 
107748.2130       0.00 
107748.4570       0.00 
107748.7010       0.00 
107748.9450       0.00 
107749.1890       0.00 
107749.4330       0.00 
107749.6770       0.00 
107749.9210       0.00 
107750.1650       0.00 
107750.4090       0.00 
107750.6530       0.00 
107750.8970       0.00 
107751.1410       0.00 
107751.3850       0.00 
107751.6290       0.00 
107751.8730       0.00 
107752.1170       0.00 
107752.3610       0.00 
107752.6050       0.00 
107752.8490       0.00 
107753.0930       0.00 
107753.3370       0.00 
107753.5810       0.00 
107753.8250       0.00 
107754.0690       0.00 
107754.3130       0.00 
107754.5570       0.00 
107754.8010       0.00 
107755.0450       0.00 
107755.2890       0.00 
107755.5330       0.00 
107755.7770       0.00 
107756.0210       0.00 
107756.2650       0.00 
107756.5090       0.00 
107756.7530       0.00 
107756.9970       0.00 
107757.2410       0.00 
107757.4850       0.00 
107757.7290       0.00 
107757.9730       0.00 
107758.2170       0.00 
107758.4610       0.00 
107758.7050       0.00 
107758.9490       0.00 
107759.1930       0.00 
107759.4370       0.00 
107759.6810       0.00 
107759.9250       0.00 
107760.1690       0.00 
107760.4130       0.00 
107760.6570       0.00 
107760.9010       0.00 
107761.1450       0.00 
107761.3890       0.00 
107761.6330       0.00 
107761.8770       0.00 
107762.1210       0.00 
107762.3650       0.00 
107762.6090       0.00 
107762.8530       0.00 
107763.0970       0.00 
107763.3410       0.00 
107763.5850       0.00 
107763.8290       0.00 
107764.0730       0.00 
107764.3170       0.00 
107764.5610       0.00 
107764.8050       0.00 
107765.0490       0.00 
107765.2930       0.00 
107765.5370       0.00 
107765.7810       0.00 
107766.0250       0.00 
107766.2690       0.00 
107766.5130       0.00 
107766.7570       0.00 
107767.0010       0.00 
107767.2450       0.00 
107767.4890       0.00 
107767.7330       0.00 
107767.9770       0.00 
107768.2210       0.00 
107768.4650       0.00 
107768.7090       0.00 
107768.9530       0.00 
107769.1970       0.00 
107769.4410       0.00 
107769.6850       0.00 
107769.9290       0.00 
107770.1730       0.00 
107770.4170       0.00 
107770.6610       0.00 
107770.9050       0.00 
107771.1490       0.00 
107771.3930       0.00 
107771.6370       0.00 
107771.8810       0.00 
107772.1250       0.00 
107772.3690       0.00 
107772.6130       0.00 
107772.8570       0.00 
107773.1010       0.00 
107773.3450       0.00 
107773.5890       0.00 
107773.8330       0.00 
107774.0770       0.00 
107774.3210       0.00 
107774.5650       0.00 
107774.8090       0.00 
107775.0530       0.00 
107775.2970       0.00 
107775.5410       0.00 
107775.7850       0.00 
107776.0290       0.00 
107776.2730       0.00 
107776.5170       0.00 
107776.7610       0.00 
107777.0050       0.00 
107777.2490       0.00 
107777.4930       0.00 
107777.7370       0.00 
107777.9810       0.00 
107778.2250       0.00 
107778.4690       0.00 
107778.7130       0.00 
107778.9570       0.00 
107779.2010       0.00 
107779.4450       0.00 
107779.6890       0.00 
107779.9330       0.00 
107780.1770       0.00 
107780.4210       0.00 
107780.6650       0.00 
107780.9090       0.00 
107781.1530       0.00 
107781.3970       0.00 
107781.6410       0.00 
107781.8850       0.00 
107782.1290       0.00 
107782.3730       0.00 
107782.6170       0.00 
107782.8610       0.00 
107783.1050       0.00 
107783.3490       0.00 
107783.5930       0.00 
107783.8370       0.00 
107784.0810       0.00 
107784.3250       0.00 
107784.5690       0.00 
107784.8130       0.00 
107785.0570       0.00 
107785.3010       0.00 
107785.5450       0.00 
107785.7890       0.00 
107786.0330       0.00 
107786.2770       0.00 
107786.5210       0.00 
107786.7650       0.00 
107787.0090       0.00 
107787.2530       0.00 
107787.4970       0.00 
107787.7410       0.00 
107787.9850       0.00 
107788.2290       0.00 
107788.4730       0.00 
107788.7170       0.00 
107788.9610       0.00 
107789.2050       0.00 
107789.4490       0.00 
107789.6930       0.00 
107789.9370       0.00 
107790.1810       0.00 
107790.4250       0.00 
107790.6690       0.00 
107790.9130       0.00 
107791.1570       0.00 
107791.4010       0.00 
107791.6450       0.00 
107791.8890       0.00 
107792.1330       0.00 
107792.3770       0.00 
107792.6210       0.00 
107792.8650       0.00 
107793.1090       0.00 
107793.3530       0.00 
107793.5970       0.00 
107793.8410       0.00 
107794.0850       0.00 
107794.3290       0.00 
107794.5730       0.00 
107794.8170       0.00 
107795.0610       0.00 
107795.3050       0.00 
107795.5490       0.00 
107795.7930       0.00 
107796.0370       0.00 
107796.2810       0.00 
107796.5250       0.00 
107796.7690       0.00 
107797.0130       0.00 
107797.2570       0.00 
107797.5010       0.00 
107797.7450       0.00 
107797.9890       0.00 
107798.2330       0.00 
107798.4770       0.00 
107798.7210       0.00 
107798.9650       0.00 
107799.2090       0.00 
107799.4530       0.00 
107799.6970       0.00 
107799.9410       0.00 
107800.1850       0.00 
107800.4290       0.00 
107800.6730       0.00 
107800.9170       0.00 
107801.1610       0.00 
107801.4050       0.00 
107801.6490       0.00 
107801.8930       0.00 
107802.1370       0.00 
107802.3810       0.00 
107802.6250       0.00 
107802.8690       0.00 
107803.1130       0.00 
107803.3570       0.00 
107803.6010       0.00 
107803.8450       0.00 
107804.0890       0.00 
107804.3330       0.00 
107804.5770       0.00 
107804.8210       0.00 
107805.0650       0.00 
107805.3090       0.00 
107805.5530       0.00 
107805.7970       0.00 
107806.0410       0.00 
107806.2850       0.00 
107806.5290       0.00 
107806.7730       0.00 
107807.0170       0.00 
107807.2610       0.00 
107807.5050       0.00 
107807.7490       0.00 
107807.9930       0.00 
107808.2370       0.00 
107808.4810       0.00 
107808.7250       0.00 
107808.9690       0.00 
107809.2130       0.00 
107809.4570       0.00 
107809.7010       0.00 
107809.9450       0.00 
107810.1890       0.00 
107810.4330       0.00 
107810.6770       0.00 
107810.9210       0.00 
107811.1650       0.00 
107811.4090       0.00 
107811.6530       0.00 
107811.8970       0.00 
107812.1410       0.00 
107812.3850       0.00 
107812.6290       0.00 
107812.8730       0.00 
107813.1170       0.00 
107813.3610       0.00 
107813.6050       0.00 
107813.8490       0.00 
107814.0930       0.00 
107814.3370       0.00 
107814.5810       0.00 
107814.8250       0.00 
107815.0690       0.00 
107815.3130       0.00 
107815.5570       0.00 
107815.8010       0.00 
107816.0450       0.00 
107816.2890       0.00 
107816.5330       0.00 
107816.7770       0.00 
107817.0210       0.00 
107817.2650       0.00 
107817.5090       0.00 
107817.7530       0.00 
107817.9970       0.00 
107818.2410       0.00 
107818.4850       0.00 
107818.7290       0.00 
107818.9730       0.00 
107819.2170       0.00 
107819.4610       0.00 
107819.7050       0.00 
107819.9490       0.00 
107820.1930       0.00 
107820.4370       0.00 
107820.6810       0.00 
107820.9250       0.00 
107821.1690       0.00 
107821.4130       0.00 
107821.6570       0.00 
107821.9010       0.00 
107822.1450       0.00 
107822.3890       0.00 
107822.6330       0.00 
107822.8770       0.00 
107823.1210       0.00 
107823.3650       0.00 
107823.6090       0.00 
107823.8530       0.00 
107824.0970       0.00 
107824.3410       0.00 
107824.5850       0.00 
107824.8290       0.00 
107825.0730       0.00 
107825.3170       0.00 
107825.5610       0.00 
107825.8050       0.00 
107826.0490       0.00 
107826.2930       0.00 
107826.5370       0.00 
107826.7810       0.00 
107827.0250       0.00 
107827.2690       0.00 
107827.5130       0.00 
107827.7570       0.00 
107828.0010       0.00 
107828.2450       0.00 
107828.4890       0.00 
107828.7330       0.00 
107828.9770       0.00 
107829.2210       0.00 
107829.4650       0.00 
107829.7090       0.00 
107829.9530       0.00 
107830.1970       0.00 
107830.4410       0.00 
107830.6850       0.00 
107830.9290       0.00 
107831.1730       0.00 
107831.4170       0.00 
107831.6610       0.00 
107831.9050       0.00 
107832.1490       0.00 
107832.3930       0.00 
107832.6370       0.00 
107832.8810       0.00 
107833.1250       0.00 
107833.3690       0.00 
107833.6130       0.00 
107833.8570       0.00 
107834.1010       0.00 
107834.3450       0.00 
107834.5890       0.00 
107834.8330       0.00 
107835.0770       0.00 
107835.3210       0.00 
107835.5650       0.00 
107835.8090       0.00 
107836.0530       0.00 
107836.2970       0.00 
107836.5410       0.00 
107836.7850       0.00 
107837.0290       0.00 
107837.2730       0.00 
107837.5170       0.00 
107837.7610       0.00 
107838.0050       0.00 
107838.2490       0.00 
107838.4930       0.00 
107838.7370       0.00 
107838.9810       0.00 
107839.2250       0.00 
107839.4690       0.00 
107839.7130       0.00 
107839.9570       0.00 
107840.2010       0.00 
107840.4450       0.00 
107840.6890       0.00 
107840.9330       0.00 
107841.1770       0.00 
107841.4210       0.00 
107841.6650       0.00 
107841.9090       0.00 
107842.1530       0.00 
107842.3970       0.00 
107842.6410       0.00 
107842.8850       0.00 
107843.1290       0.00 
107843.3730       0.00 
107843.6170       0.00 
107843.8610       0.00 
107844.1050       0.00 
107844.3490       0.00 
107844.5930       0.00 
107844.8370       0.00 
107845.0810       0.00 
107845.3250       0.00 
107845.5690       0.00 
107845.8130       0.00 
107846.0570       0.00 
107846.3010       0.00 
107846.5450       0.00 
107846.7890       0.00 
107847.0330       0.00 
107847.2770       0.00 
107847.5210       0.00 
107847.7650       0.00 
107848.0090       0.00 
107848.2530       0.00 
107848.4970       0.00 
107848.7410       0.00 
107848.9850       0.00 
107849.2290       0.00 
107849.4730       0.00 
107849.7170       0.00 
107849.9610       0.00 
107850.2050       0.00 
107850.4490       0.00 
107850.6930       0.00 
107850.9370       0.00 
107851.1810       0.00 
107851.4250       0.00 
107851.6690       0.00 
107851.9130       0.00 
107852.1570       0.00 
107852.4010       0.00 
107852.6450       0.00 
107852.8890       0.00 
107853.1330       0.00 
107853.3770       0.00 
107853.6210       0.00 
107853.8650       0.00 
107854.1090       0.00 
107854.3530       0.00 
107854.5970       0.00 
107854.8410       0.00 
107855.0850       0.00 
107855.3290       0.00 
107855.5730       0.00 
107855.8170       0.00 
107856.0610       0.00 
107856.3050       0.00 
107856.5490       0.00 
107856.7930       0.00 
107857.0370       0.00 
107857.2810       0.00 
107857.5250       0.00 
107857.7690       0.00 
107858.0130       0.00 
107858.2570       0.00 
107858.5010       0.00 
107858.7450       0.00 
107858.9890       0.00 
107859.2330       0.00 
107859.4770       0.00 
107859.7210       0.00 
107859.9650       0.00 
107860.2090       0.00 
107860.4530       0.00 
107860.6970       0.00 
107860.9410       0.00 
107861.1850       0.00 
107861.4290       0.00 
107861.6730       0.00 
107861.9170       0.00 
107862.1610       0.00 
107862.4050       0.00 
107862.6490       0.00 
107862.8930       0.00 
107863.1370       0.00 
107863.3810       0.00 
107863.6250       0.00 
107863.8690       0.00 
107864.1130       0.00 
107864.3570       0.00 
107864.6010       0.00 
107864.8450       0.00 
107865.0890       0.00 
107865.3330       0.00 
107865.5770       0.00 
107865.8210       0.00 
107866.0650       0.00 
107866.3090       0.00 
107866.5530       0.00 
107866.7970       0.00 
107867.0410       0.00 
107867.2850       0.00 
107867.5290       0.00 
107867.7730       0.00 
107868.0170       0.00 
107868.2610       0.00 
107868.5050       0.00 
107868.7490       0.00 
107868.9930       0.00 
107869.2370       0.00 
107869.4810       0.00 
107869.7250       0.00 
107869.9690       0.00 
107870.2130       0.00 
107870.4570       0.00 
107870.7010       0.00 
107870.9450       0.00 
107871.1890       0.00 
107871.4330       0.00 
107871.6770       0.00 
107871.9210       0.00 
107872.1650       0.00 
107872.4090       0.00 
107872.6530       0.00 
107872.8970       0.00 
107873.1410       0.00 
107873.3850       0.00 
107873.6290       0.00 
107873.8730       0.00 
107874.1170       0.00 
107874.3610       0.00 
107874.6050       0.00 
107874.8490       0.00 
107875.0930       0.00 
107875.3370       0.00 
107875.5810       0.00 
107875.8250       0.00 
107876.0690       0.00 
107876.3130       0.00 
107876.5570       0.00 
107876.8010       0.00 
107877.0450       0.00 
107877.2890       0.00 
107877.5330       0.00 
107877.7770       0.00 
107878.0210       0.00 
107878.2650       0.00 
107878.5090       0.00 
107878.7530       0.00 
107878.9970       0.00 
107879.2410       0.00 
107879.4850       0.00 
107879.7290       0.00 
107879.9730       0.00 
107880.2170       0.00 
107880.4610       0.00 
107880.7050       0.00 
107880.9490       0.00 
107881.1930       0.00 
107881.4370       0.00 
107881.6810       0.00 
107881.9250       0.00 
107882.1690       0.00 
107882.4130       0.00 
107882.6570       0.00 
107882.9010       0.00 
107883.1450       0.00 
107883.3890       0.00 
107883.6330       0.00 
107883.8770       0.00 
107884.1210       0.00 
107884.3650       0.00 
107884.6090       0.00 
107884.8530       0.00 
107885.0970       0.00 
107885.3410       0.00 
107885.5850       0.00 
107885.8290       0.00 
107886.0730       0.00 
107886.3170       0.00 
107886.5610       0.00 
107886.8050       0.00 
107887.0490       0.00 
107887.2930       0.00 
107887.5370       0.00 
107887.7810       0.00 
107888.0250       0.00 
107888.2690       0.00 
107888.5130       0.00 
107888.7570       0.00 
107889.0010       0.00 
107889.2450       0.00 
107889.4890       0.00 
107889.7330       0.00 
107889.9770       0.00 
107890.2210       0.00 
107890.4650       0.00 
107890.7090       0.00 
107890.9530       0.00 
107891.1970       0.00 
107891.4410       0.00 
107891.6850       0.00 
107891.9290       0.00 
107892.1730       0.00 
107892.4170       0.00 
107892.6610       0.00 
107892.9050       0.00 
107893.1490       0.00 
107893.3930       0.00 
107893.6370       0.00 
107893.8810       0.00 
107894.1250       0.00 
107894.3690       0.00 
107894.6130       0.00 
107894.8570       0.00 
107895.1010       0.00 
107895.3450       0.00 
107895.5890       0.00 
107895.8330       0.00 
107896.0770       0.00 
107896.3210       0.00 
107896.5650       0.00 
107896.8090       0.00 
107897.0530       0.00 
107897.2970       0.00 
107897.5410       0.00 
107897.7850       0.00 
107898.0290       0.00 
107898.2730       0.00 
107898.5170       0.00 
107898.7610       0.00 
107899.0050       0.00 
107899.2490       0.00 
107899.4930       0.00 
107899.7370       0.00 
107899.9810       0.00 
107900.2250       0.00 
107900.4690       0.00 
107900.7130       0.00 
107900.9570       0.00 
107901.2010       0.00 
107901.4450       0.00 
107901.6890       0.00 
107901.9330       0.00 
107902.1770       0.00 
107902.4210       0.00 
107902.6650       0.00 
107902.9090       0.00 
107903.1530       0.00 
107903.3970       0.00 
107903.6410       0.00 
107903.8850       0.00 
107904.1290       0.00 
107904.3730       0.00 
107904.6170       0.00 
107904.8610       0.00 
107905.1050       0.00 
107905.3490       0.00 
107905.5930       0.00 
107905.8370       0.00 
107906.0810       0.00 
107906.3250       0.00 
107906.5690       0.00 
107906.8130       0.00 
107907.0570       0.00 
107907.3010       0.00 
107907.5450       0.00 
107907.7890       0.00 
107908.0330       0.00 
107908.2770       0.00 
107908.5210       0.00 
107908.7650       0.00 
107909.0090       0.00 
107909.2530       0.00 
107909.4970       0.00 
107909.7410       0.00 
107909.9850       0.00 
107910.2290       0.00 
107910.4730       0.00 
107910.7170       0.00 
107910.9610       0.00 
107911.2050       0.00 
107911.4490       0.00 
107911.6930       0.00 
107911.9370       0.00 
107912.1810       0.00 
107912.4250       0.00 
107912.6690       0.00 
107912.9130       0.00 
107913.1570       0.00 
107913.4010       0.00 
107913.6450       0.00 
107913.8890       0.00 
107914.1330       0.00 
107914.3770       0.00 
107914.6210       0.00 
107914.8650       0.00 
107915.1090       0.00 
107915.3530       0.00 
107915.5970       0.00 
107915.8410       0.00 
107916.0850       0.00 
107916.3290       0.00 
107916.5730       0.00 
107916.8170       0.00 
107917.0610       0.00 
107917.3050       0.00 
107917.5490       0.00 
107917.7930       0.00 
107918.0370       0.00 
107918.2810       0.00 
107918.5250       0.00 
107918.7690       0.00 
107919.0130       0.00 
107919.2570       0.00 
107919.5010       0.00 
107919.7450       0.00 
107919.9890       0.00 
107920.2330       0.00 
107920.4770       0.00 
107920.7210       0.00 
107920.9650       0.00 
107921.2090       0.00 
107921.4530       0.00 
107921.6970       0.00 
107921.9410       0.00 
107922.1850       0.00 
107922.4290       0.00 
107922.6730       0.00 
107922.9170       0.00 
107923.1610       0.00 
107923.4050       0.00 
107923.6490       0.00 
107923.8930       0.00 
107924.1370       0.00 
107924.3810       0.00 
107924.6250       0.00 
107924.8690       0.00 
107925.1130       0.00 
107925.3570       0.00 
107925.6010       0.00 
107925.8450       0.00 
107926.0890       0.00 
107926.3330       0.00 
107926.5770       0.00 
107926.8210       0.00 
107927.0650       0.00 
107927.3090       0.00 
107927.5530       0.00 
107927.7970       0.00 
107928.0410       0.00 
107928.2850       0.00 
107928.5290       0.00 
107928.7730       0.00 
107929.0170       0.00 
107929.2610       0.00 
107929.5050       0.00 
107929.7490       0.00 
107929.9930       0.00 
107930.2370       0.00 
107930.4810       0.00 
107930.7250       0.00 
107930.9690       0.00 
107931.2130       0.00 
107931.4570       0.00 
107931.7010       0.00 
107931.9450       0.00 
107932.1890       0.00 
107932.4330       0.00 
107932.6770       0.00 
107932.9210       0.00 
107933.1650       0.00 
107933.4090       0.00 
107933.6530       0.00 
107933.8970       0.00 
107934.1410       0.00 
107934.3850       0.00 
107934.6290       0.00 
107934.8730       0.00 
107935.1170       0.00 
107935.3610       0.00 
107935.6050       0.00 
107935.8490       0.00 
107936.0930       0.00 
107936.3370       0.00 
107936.5810       0.00 
107936.8250       0.00 
107937.0690       0.00 
107937.3130       0.00 
107937.5570       0.00 
107937.8010       0.00 
107938.0450       0.00 
107938.2890       0.00 
107938.5330       0.00 
107938.7770       0.00 
107939.0210       0.00 
107939.2650       0.00 
107939.5090       0.00 
107939.7530       0.00 
107939.9970       0.00 
107940.2410       0.00 
107940.4850       0.00 
107940.7290       0.00 
107940.9730       0.00 
107941.2170       0.00 
107941.4610       0.00 
107941.7050       0.00 
107941.9490       0.00 
107942.1930       0.00 
107942.4370       0.00 
107942.6810       0.00 
107942.9250       0.00 
107943.1690       0.00 
107943.4130       0.00 
107943.6570       0.00 
107943.9010       0.00 
107944.1450       0.00 
107944.3890       0.00 
107944.6330       0.00 
107944.8770       0.00 
107945.1210       0.00 
107945.3650       0.00 
107945.6090       0.00 
107945.8530       0.00 
107946.0970       0.00 
107946.3410       0.00 
107946.5850       0.00 
107946.8290       0.00 
107947.0730       0.00 
107947.3170       0.00 
107947.5610       0.00 
107947.8050       0.00 
107948.0490       0.00 
107948.2930       0.00 
107948.5370       0.00 
107948.7810       0.00 
107949.0250       0.00 
107949.2690       0.00 
107949.5130       0.00 
107949.7570       0.00 
107950.0010       0.00 
107950.2450       0.00 
107950.4890       0.00 
107950.7330       0.00 
107950.9770       0.00 
107951.2210       0.00 
107951.4650       0.00 
107951.7090       0.00 
107951.9530       0.00 
107952.1970       0.00 
107952.4410       0.00 
107952.6850       0.00 
107952.9290       0.00 
107953.1730       0.00 
107953.4170       0.00 
107953.6610       0.00 
107953.9050       0.00 
107954.1490       0.00 
107954.3930       0.00 
107954.6370       0.00 
107954.8810       0.00 
107955.1250       0.00 
107955.3690       0.00 
107955.6130       0.00 
107955.8570       0.00 
107956.1010       0.00 
107956.3450       0.00 
107956.5890       0.00 
107956.8330       0.00 
107957.0770       0.00 
107957.3210       0.00 
107957.5650       0.00 
107957.8090       0.00 
107958.0530       0.00 
107958.2970       0.00 
107958.5410       0.00 
107958.7850       0.00 
107959.0290       0.00 
107959.2730       0.00 
107959.5170       0.00 
107959.7610       0.00 
107960.0050       0.00 
107960.2490       0.00 
107960.4930       0.00 
107960.7370       0.00 
107960.9810       0.00 
107961.2250       0.00 
107961.4690       0.00 
107961.7130       0.00 
107961.9570       0.00 
107962.2010       0.00 
107962.4450       0.00 
107962.6890       0.00 
107962.9330       0.00 
107963.1770       0.00 
107963.4210       0.00 
107963.6650       0.00 
107963.9090       0.00 
107964.1530       0.00 
107964.3970       0.00 
107964.6410       0.00 
107964.8850       0.00 
107965.1290       0.00 
107965.3730       0.00 
107965.6170       0.00 
107965.8610       0.00 
107966.1050       0.00 
107966.3490       0.00 
107966.5930       0.00 
107966.8370       0.00 
107967.0810       0.00 
107967.3250       0.00 
107967.5690       0.00 
107967.8130       0.00 
107968.0570       0.00 
107968.3010       0.00 
107968.5450       0.00 
107968.7890       0.00 
107969.0330       0.00 
107969.2770       0.00 
107969.5210       0.00 
107969.7650       0.00 
107970.0090       0.00 
107970.2530       0.00 
107970.4970       0.00 
107970.7410       0.00 
107970.9850       0.00 
107971.2290       0.00 
107971.4730       0.00 
107971.7170       0.00 
107971.9610       0.00 
107972.2050       0.00 
107972.4490       0.00 
107972.6930       0.00 
107972.9370       0.00 
107973.1810       0.00 
107973.4250       0.00 
107973.6690       0.00 
107973.9130       0.00 
107974.1570       0.00 
107974.4010       0.00 
107974.6450       0.00 
107974.8890       0.00 
107975.1330       0.00 
107975.3770       0.00 
107975.6210       0.00 
107975.8650       0.00 
107976.1090       0.00 
107976.3530       0.00 
107976.5970       0.00 
107976.8410       0.00 
107977.0850       0.00 
107977.3290       0.00 
107977.5730       0.00 
107977.8170       0.00 
107978.0610       0.00 
107978.3050       0.00 
107978.5490       0.00 
107978.7930       0.00 
107979.0370       0.00 
107979.2810       0.00 
107979.5250       0.00 
107979.7690       0.00 
107980.0130       0.00 
107980.2570       0.00 
107980.5010       0.00 
107980.7450       0.00 
107980.9890       0.00 
107981.2330       0.00 
107981.4770       0.00 
107981.7210       0.00 
107981.9650       0.00 
107982.2090       0.00 
107982.4530       0.00 
107982.6970       0.00 
107982.9410       0.00 
107983.1850       0.00 
107983.4290       0.00 
107983.6730       0.00 
107983.9170       0.00 
107984.1610       0.00 
107984.4050       0.00 
107984.6490       0.00 
107984.8930       0.00 
107985.1370       0.00 
107985.3810       0.00 
107985.6250       0.00 
107985.8690       0.00 
107986.1130       0.00 
107986.3570       0.00 
107986.6010       0.00 
107986.8450       0.00 
107987.0890       0.00 
107987.3330       0.00 
107987.5770       0.00 
107987.8210       0.00 
107988.0650       0.00 
107988.3090       0.00 
107988.5530       0.00 
107988.7970       0.00 
107989.0410       0.00 
107989.2850       0.00 
107989.5290       0.00 
107989.7730       0.00 
107990.0170       0.00 
107990.2610       0.00 
107990.5050       0.00 
107990.7490       0.00 
107990.9930       0.00 
107991.2370       0.00 
107991.4810       0.00 
107991.7250       0.00 
107991.9690       0.00 
107992.2130       0.00 
107992.4570       0.00 
107992.7010       0.00 
107992.9450       0.00 
107993.1890       0.00 
107993.4330       0.00 
107993.6770       0.00 
107993.9210       0.00 
107994.1650       0.00 
107994.4090       0.00 
107994.6530       0.00 
107994.8970       0.00 
107995.1410       0.00 
107995.3850       0.00 
107995.6290       0.00 
107995.8730       0.00 
107996.1170       0.00 
107996.3610       0.00 
107996.6050       0.00 
107996.8490       0.00 
107997.0930       0.00 
107997.3370       0.00 
107997.5810       0.00 
107997.8250       0.00 
107998.0690       0.00 
107998.3130       0.00 
107998.5570       0.00 
107998.8010       0.00 
107999.0450       0.00 
107999.2890       0.00 
107999.5330       0.00 
107999.7770       0.00 
108000.0210       0.00 
108000.2650       0.00 
108000.5090       0.00 
108000.7530       0.00 
108000.9970       0.00 
108001.2410       0.00 
108001.4850       0.00 
108001.7290       0.00 
108001.9730       0.00 
108002.2170       0.00 
108002.4610       0.00 
108002.7050       0.00 
108002.9490       0.00 
108003.1930       0.00 
108003.4370       0.00 
108003.6810       0.00 
108003.9250       0.00 
108004.1690       0.00 
108004.4130       0.00 
108004.6570       0.00 
108004.9010       0.00 
108005.1450       0.00 
108005.3890       0.00 
108005.6330       0.00 
108005.8770       0.00 
108006.1210       0.00 
108006.3650       0.00 
108006.6090       0.00 
108006.8530       0.00 
108007.0970       0.00 
108007.3410       0.00 
108007.5850       0.00 
108007.8290       0.00 
108008.0730       0.00 
108008.3170       0.00 
108008.5610       0.00 
108008.8050       0.00 
108009.0490       0.00 
108009.2930       0.00 
108009.5370       0.00 
108009.7810       0.00 
108010.0250       0.00 
108010.2690       0.00 
108010.5130       0.00 
108010.7570       0.00 
108011.0010       0.00 
108011.2450       0.00 
108011.4890       0.00 
108011.7330       0.00 
108011.9770       0.00 
108012.2210       0.00 
108012.4650       0.00 
108012.7090       0.00 
108012.9530       0.00 
108013.1970       0.00 
108013.4410       0.00 
108013.6850       0.00 
108013.9290       0.00 
108014.1730       0.00 
108014.4170       0.00 
108014.6610       0.00 
108014.9050       0.00 
108015.1490       0.00 
108015.3930       0.00 
108015.6370       0.00 
108015.8810       0.00 
108016.1250       0.00 
108016.3690       0.00 
108016.6130       0.00 
108016.8570       0.00 
108017.1010       0.00 
108017.3450       0.00 
108017.5890       0.00 
108017.8330       0.00 
108018.0770       0.00 
108018.3210       0.00 
108018.5650       0.00 
108018.8090       0.00 
108019.0530       0.00 
108019.2970       0.00 
108019.5410       0.00 
108019.7850       0.00 
108020.0290       0.00 
108020.2730       0.00 
108020.5170       0.00 
108020.7610       0.00 
108021.0050       0.00 
108021.2490       0.00 
108021.4930       0.00 
108021.7370       0.00 
108021.9810       0.00 
108022.2250       0.00 
108022.4690       0.00 
108022.7130       0.00 
108022.9570       0.00 
108023.2010       0.00 
108023.4450       0.00 
108023.6890       0.00 
108023.9330       0.00 
108024.1770       0.00 
108024.4210       0.00 
108024.6650       0.00 
108024.9090       0.00 
108025.1530       0.00 
108025.3970       0.00 
108025.6410       0.00 
108025.8850       0.00 
108026.1290       0.00 
108026.3730       0.00 
108026.6170       0.00 
108026.8610       0.00 
108027.1050       0.00 
108027.3490       0.00 
108027.5930       0.00 
108027.8370       0.00 
108028.0810       0.00 
108028.3250       0.00 
108028.5690       0.00 
108028.8130       0.00 
108029.0570       0.00 
108029.3010       0.00 
108029.5450       0.00 
108029.7890       0.00 
108030.0330       0.00 
108030.2770       0.00 
108030.5210       0.00 
108030.7650       0.00 
108031.0090       0.00 
108031.2530       0.00 
108031.4970       0.00 
108031.7410       0.00 
108031.9850       0.00 
108032.2290       0.00 
108032.4730       0.00 
108032.7170       0.00 
108032.9610       0.00 
108033.2050       0.00 
108033.4490       0.00 
108033.6930       0.00 
108033.9370       0.00 
108034.1810       0.00 
108034.4250       0.00 
108034.6690       0.00 
108034.9130       0.00 
108035.1570       0.00 
108035.4010       0.00 
108035.6450       0.00 
108035.8890       0.00 
108036.1330       0.00 
108036.3770       0.00 
108036.6210       0.00 
108036.8650       0.00 
108037.1090       0.00 
108037.3530       0.00 
108037.5970       0.00 
108037.8410       0.00 
108038.0850       0.00 
108038.3290       0.00 
108038.5730       0.00 
108038.8170       0.00 
108039.0610       0.00 
108039.3050       0.00 
108039.5490       0.00 
108039.7930       0.00 
108040.0370       0.00 
108040.2810       0.00 
108040.5250       0.00 
108040.7690       0.00 
108041.0130       0.00 
108041.2570       0.00 
108041.5010       0.00 
108041.7450       0.00 
108041.9890       0.00 
108042.2330       0.00 
108042.4770       0.00 
108042.7210       0.00 
108042.9650       0.00 
108043.2090       0.00 
108043.4530       0.00 
108043.6970       0.00 
108043.9410       0.00 
108044.1850       0.00 
108044.4290       0.00 
108044.6730       0.00 
108044.9170       0.00 
108045.1610       0.00 
108045.4050       0.00 
108045.6490       0.00 
108045.8930       0.00 
108046.1370       0.00 
108046.3810       0.00 
108046.6250       0.00 
108046.8690       0.00 
108047.1130       0.00 
108047.3570       0.00 
108047.6010       0.00 
108047.8450       0.00 
108048.0890       0.00 
108048.3330       0.00 
108048.5770       0.00 
108048.8210       0.00 
108049.0650       0.00 
108049.3090       0.00 
108049.5530       0.00 
108049.7970       0.00 
108050.0410       0.00 
108050.2850       0.00 
108050.5290       0.00 
108050.7730       0.00 
108051.0170       0.00 
108051.2610       0.00 
108051.5050       0.00 
108051.7490       0.00 
108051.9930       0.00 
108052.2370       0.00 
108052.4810       0.00 
108052.7250       0.00 
108052.9690       0.00 
108053.2130       0.00 
108053.4570       0.00 
108053.7010       0.00 
108053.9450       0.00 
108054.1890       0.00 
108054.4330       0.00 
108054.6770       0.00 
108054.9210       0.00 
108055.1650       0.00 
108055.4090       0.00 
108055.6530       0.00 
108055.8970       0.00 
108056.1410       0.00 
108056.3850       0.00 
108056.6290       0.01 
108056.8730       0.01 
108057.1170       0.03 
108057.3610       0.06 
108057.6050       0.10 
108057.8490       0.14 
108058.0930       0.18 
108058.3370       0.23 
108058.5810       0.26 
108058.8250       0.26 
108059.0690       0.23 
108059.3130       0.19 
108059.5570       0.14 
108059.8010       0.09 
108060.0450       0.05 
108060.2890       0.03 
108060.5330       0.01 
108060.7770       0.01 
108061.0210       0.00 
108061.2650       0.00 
108061.5090       0.00 
108061.7530       0.00 
108061.9970       0.00 
108062.2410       0.00 
108062.4850       0.00 
108062.7290       0.00 
108062.9730       0.00 
108063.2170       0.00 
108063.4610       0.00 
108063.7050       0.00 
108063.9490       0.00 
108064.1930       0.00 
108064.4370       0.00 
108064.6810       0.00 
108064.9250       0.00 
108065.1690       0.00 
108065.4130       0.00 
108065.6570       0.00 
108065.9010       0.00 
108066.1450       0.00 
108066.3890       0.00 
108066.6330       0.00 
108066.8770       0.00 
108067.1210       0.00 
108067.3650       0.00 
108067.6090       0.00 
108067.8530       0.00 
108068.0970       0.00 
108068.3410       0.00 
108068.5850       0.00 
108068.8290       0.00 
108069.0730       0.00 
108069.3170       0.00 
108069.5610       0.00 
108069.8050       0.00 
108070.0490       0.00 
108070.2930       0.00 
108070.5370       0.00 
108070.7810       0.00 
108071.0250       0.00 
108071.2690       0.00 
108071.5130       0.00 
108071.7570       0.00 
108072.0010       0.00 
108072.2450       0.00 
108072.4890       0.00 
108072.7330       0.00 
108072.9770       0.00 
108073.2210       0.00 
108073.4650       0.00 
108073.7090       0.00 
108073.9530       0.00 
108074.1970       0.00 
108074.4410       0.00 
108074.6850       0.00 
108074.9290       0.00 
108075.1730       0.00 
108075.4170       0.00 
108075.6610       0.00 
108075.9050       0.00 
108076.1490       0.00 
108076.3930       0.00 
108076.6370       0.00 
108076.8810       0.00 
108077.1250       0.00 
108077.3690       0.00 
108077.6130       0.00 
108077.8570       0.00 
108078.1010       0.00 
108078.3450       0.00 
108078.5890       0.00 
108078.8330       0.00 
108079.0770       0.00 
108079.3210       0.00 
108079.5650       0.00 
108079.8090       0.00 
108080.0530       0.00 
108080.2970       0.00 
108080.5410       0.00 
108080.7850       0.00 
108081.0290       0.00 
108081.2730       0.00 
108081.5170       0.00 
108081.7610       0.00 
108082.0050       0.00 
108082.2490       0.00 
108082.4930       0.00 
108082.7370       0.00 
108082.9810       0.00 
108083.2250       0.00 
108083.4690       0.00 
108083.7130       0.00 
108083.9570       0.00 
108084.2010       0.00 
108084.4450       0.00 
108084.6890       0.00 
108084.9330       0.00 
108085.1770       0.00 
108085.4210       0.00 
108085.6650       0.00 
108085.9090       0.00 
108086.1530       0.00 
108086.3970       0.00 
108086.6410       0.00 
108086.8850       0.00 
108087.1290       0.00 
108087.3730       0.00 
108087.6170       0.00 
108087.8610       0.00 
108088.1050       0.00 
108088.3490       0.00 
108088.5930       0.00 
108088.8370       0.00 
108089.0810       0.00 
108089.3250       0.00 
108089.5690       0.00 
108089.8130       0.00 
108090.0570       0.00 
108090.3010       0.00 
108090.5450       0.00 
108090.7890       0.00 
108091.0330       0.00 
108091.2770       0.00 
108091.5210       0.00 
108091.7650       0.00 
108092.0090       0.00 
108092.2530       0.00 
108092.4970       0.00 
108092.7410       0.00 
108092.9850       0.00 
108093.2290       0.00 
108093.4730       0.00 
108093.7170       0.00 
108093.9610       0.00 
108094.2050       0.00 
108094.4490       0.00 
108094.6930       0.00 
108094.9370       0.00 
108095.1810       0.00 
108095.4250       0.00 
108095.6690       0.00 
108095.9130       0.00 
108096.1570       0.00 
108096.4010       0.00 
108096.6450       0.00 
108096.8890       0.00 
108097.1330       0.00 
108097.3770       0.00 
108097.6210       0.00 
108097.8650       0.00 
108098.1090       0.00 
108098.3530       0.00 
108098.5970       0.00 
108098.8410       0.00 
108099.0850       0.00 
108099.3290       0.00 
108099.5730       0.00 
108099.8170       0.00 
108100.0610       0.00 
108100.3050       0.00 
108100.5490       0.00 
108100.7930       0.00 
108101.0370       0.00 
108101.2810       0.00 
108101.5250       0.00 
108101.7690       0.00 
108102.0130       0.00 
108102.2570       0.00 
108102.5010       0.00 
108102.7450       0.00 
108102.9890       0.00 
108103.2330       0.00 
108103.4770       0.00 
108103.7210       0.00 
108103.9650       0.00 
108104.2090       0.00 
108104.4530       0.00 
108104.6970       0.00 
108104.9410       0.00 
108105.1850       0.00 
108105.4290       0.00 
108105.6730       0.00 
108105.9170       0.00 
108106.1610       0.00 
108106.4050       0.00 
108106.6490       0.00 
108106.8930       0.00 
108107.1370       0.00 
108107.3810       0.00 
108107.6250       0.00 
108107.8690       0.00 
108108.1130       0.00 
108108.3570       0.00 
108108.6010       0.00 
108108.8450       0.00 
108109.0890       0.00 
108109.3330       0.00 
108109.5770       0.00 
108109.8210       0.00 
108110.0650       0.00 
108110.3090       0.00 
108110.5530       0.00 
108110.7970       0.00 
108111.0410       0.00 
108111.2850       0.00 
108111.5290       0.00 
108111.7730       0.00 
108112.0170       0.00 
108112.2610       0.00 
108112.5050       0.00 
108112.7490       0.00 
108112.9930       0.00 
108113.2370       0.00 
108113.4810       0.00 
108113.7250       0.00 
108113.9690       0.00 
108114.2130       0.00 
108114.4570       0.00 
108114.7010       0.00 
108114.9450       0.00 
108115.1890       0.00 
108115.4330       0.00 
108115.6770       0.00 
108115.9210       0.00 
108116.1650       0.00 
108116.4090       0.00 
108116.6530       0.00 
108116.8970       0.00 
108117.1410       0.00 
108117.3850       0.00 
108117.6290       0.00 
108117.8730       0.00 
108118.1170       0.00 
108118.3610       0.00 
108118.6050       0.00 
108118.8490       0.00 
108119.0930       0.00 
108119.3370       0.00 
108119.5810       0.00 
108119.8250       0.00 
108120.0690       0.00 
108120.3130       0.00 
108120.5570       0.00 
108120.8010       0.00 
108121.0450       0.00 
108121.2890       0.00 
108121.5330       0.00 
108121.7770       0.00 
108122.0210       0.00 
108122.2650       0.00 
108122.5090       0.00 
108122.7530       0.00 
108122.9970       0.00 
108123.2410       0.00 
108123.4850       0.00 
108123.7290       0.00 
108123.9730       0.00 
108124.2170       0.00 
108124.4610       0.00 
108124.7050       0.00 
108124.9490       0.00 
108125.1930       0.00 
108125.4370       0.00 
108125.6810       0.00 
108125.9250       0.00 
108126.1690       0.00 
108126.4130       0.00 
108126.6570       0.00 
108126.9010       0.00 
108127.1450       0.00 
108127.3890       0.00 
108127.6330       0.00 
108127.8770       0.00 
108128.1210       0.00 
108128.3650       0.00 
108128.6090       0.00 
108128.8530       0.00 
108129.0970       0.00 
108129.3410       0.00 
108129.5850       0.00 
108129.8290       0.00 
108130.0730       0.00 
108130.3170       0.00 
108130.5610       0.00 
108130.8050       0.00 
108131.0490       0.00 
108131.2930       0.00 
108131.5370       0.00 
108131.7810       0.00 
108132.0250       0.00 
108132.2690       0.00 
108132.5130       0.00 
108132.7570       0.00 
108133.0010       0.00 
108133.2450       0.00 
108133.4890       0.00 
108133.7330       0.00 
108133.9770       0.00 
108134.2210       0.00 
108134.4650       0.00 
108134.7090       0.00 
108134.9530       0.00 
108135.1970       0.00 
108135.4410       0.00 
108135.6850       0.00 
108135.9290       0.00 
108136.1730       0.00 
108136.4170       0.00 
108136.6610       0.00 
108136.9050       0.00 
108137.1490       0.00 
108137.3930       0.00 
108137.6370       0.00 
108137.8810       0.00 
108138.1250       0.00 
108138.3690       0.00 
108138.6130       0.00 
108138.8570       0.00 
108139.1010       0.00 
108139.3450       0.00 
108139.5890       0.00 
108139.8330       0.00 
108140.0770       0.00 
108140.3210       0.00 
108140.5650       0.00 
108140.8090       0.00 
108141.0530       0.00 
108141.2970       0.00 
108141.5410       0.00 
108141.7850       0.00 
108142.0290       0.00 
108142.2730       0.00 
108142.5170       0.00 
108142.7610       0.00 
108143.0050       0.00 
108143.2490       0.00 
108143.4930       0.00 
108143.7370       0.00 
108143.9810       0.00 
108144.2250       0.00 
108144.4690       0.00 
108144.7130       0.00 
108144.9570       0.00 
108145.2010       0.00 
108145.4450       0.00 
108145.6890       0.00 
108145.9330       0.00 
108146.1770       0.00 
108146.4210       0.00 
108146.6650       0.00 
108146.9090       0.00 
108147.1530       0.00 
108147.3970       0.00 
108147.6410       0.00 
108147.8850       0.00 
108148.1290       0.00 
108148.3730       0.00 
108148.6170       0.00 
108148.8610       0.00 
108149.1050       0.00 
108149.3490       0.00 
108149.5930       0.00 
108149.8370       0.00 
108150.0810       0.00 
108150.3250       0.00 
108150.5690       0.00 
108150.8130       0.00 
108151.0570       0.00 
108151.3010       0.00 
108151.5450       0.00 
108151.7890       0.00 
108152.0330       0.00 
108152.2770       0.00 
108152.5210       0.00 
108152.7650       0.00 
108153.0090       0.00 
108153.2530       0.00 
108153.4970       0.00 
108153.7410       0.00 
108153.9850       0.00 
108154.2290       0.00 
108154.4730       0.00 
108154.7170       0.00 
108154.9610       0.00 
108155.2050       0.00 
108155.4490       0.00 
108155.6930       0.00 
108155.9370       0.00 
108156.1810       0.00 
108156.4250       0.00 
108156.6690       0.00 
108156.9130       0.00 
108157.1570       0.00 
108157.4010       0.00 
108157.6450       0.00 
108157.8890       0.00 
108158.1330       0.00 
108158.3770       0.00 
108158.6210       0.00 
108158.8650       0.00 
108159.1090       0.00 
108159.3530       0.00 
108159.5970       0.00 
108159.8410       0.00 
108160.0850       0.00 
108160.3290       0.00 
108160.5730       0.00 
108160.8170       0.00 
108161.0610       0.00 
108161.3050       0.00 
108161.5490       0.00 
108161.7930       0.00 
108162.0370       0.00 
108162.2810       0.00 
108162.5250       0.00 
108162.7690       0.00 
108163.0130       0.00 
108163.2570       0.00 
108163.5010       0.00 
108163.7450       0.00 
108163.9890       0.00 
108164.2330       0.00 
108164.4770       0.00 
108164.7210       0.00 
108164.9650       0.00 
108165.2090       0.00 
108165.4530       0.00 
108165.6970       0.00 
108165.9410       0.00 
108166.1850       0.00 
108166.4290       0.00 
108166.6730       0.00 
108166.9170       0.00 
108167.1610       0.00 
108167.4050       0.00 
108167.6490       0.00 
108167.8930       0.00 
108168.1370       0.00 
108168.3810       0.00 
108168.6250       0.00 
108168.8690       0.00 
108169.1130       0.00 
108169.3570       0.00 
108169.6010       0.00 
108169.8450       0.00 
108170.0890       0.00 
108170.3330       0.00 
108170.5770       0.00 
108170.8210       0.00 
108171.0650       0.00 
108171.3090       0.00 
108171.5530       0.00 
108171.7970       0.00 
108172.0410       0.00 
108172.2850       0.00 
108172.5290       0.00 
108172.7730       0.00 
108173.0170       0.00 
108173.2610       0.00 
108173.5050       0.00 
108173.7490       0.00 
108173.9930       0.00 
108174.2370       0.00 
108174.4810       0.00 
108174.7250       0.00 
108174.9690       0.00 
108175.2130       0.00 
108175.4570       0.00 
108175.7010       0.00 
108175.9450       0.00 
108176.1890       0.00 
108176.4330       0.00 
108176.6770       0.00 
108176.9210       0.00 
108177.1650       0.00 
108177.4090       0.00 
108177.6530       0.00 
108177.8970       0.00 
108178.1410       0.00 
108178.3850       0.00 
108178.6290       0.00 
108178.8730       0.00 
108179.1170       0.00 
108179.3610       0.00 
108179.6050       0.00 
108179.8490       0.00 
108180.0930       0.00 
108180.3370       0.00 
108180.5810       0.00 
108180.8250       0.00 
108181.0690       0.00 
108181.3130       0.00 
108181.5570       0.00 
108181.8010       0.00 
108182.0450       0.00 
108182.2890       0.00 
108182.5330       0.00 
108182.7770       0.00 
108183.0210       0.00 
108183.2650       0.00 
108183.5090       0.00 
108183.7530       0.00 
108183.9970       0.00 
108184.2410       0.00 
108184.4850       0.00 
108184.7290       0.00 
108184.9730       0.00 
108185.2170       0.00 
108185.4610       0.00 
108185.7050       0.00 
108185.9490       0.00 
108186.1930       0.00 
108186.4370       0.00 
108186.6810       0.00 
108186.9250       0.00 
108187.1690       0.00 
108187.4130       0.00 
108187.6570       0.00 
108187.9010       0.00 
108188.1450       0.00 
108188.3890       0.00 
108188.6330       0.00 
108188.8770       0.00 
108189.1210       0.00 
108189.3650       0.00 
108189.6090       0.00 
108189.8530       0.00 
108190.0970       0.00 
108190.3410       0.00 
108190.5850       0.00 
108190.8290       0.00 
108191.0730       0.00 
108191.3170       0.00 
108191.5610       0.00 
108191.8050       0.00 
108192.0490       0.00 
108192.2930       0.00 
108192.5370       0.00 
108192.7810       0.00 
108193.0250       0.00 
108193.2690       0.00 
108193.5130       0.00 
108193.7570       0.00 
108194.0010       0.00 
108194.2450       0.00 
108194.4890       0.00 
108194.7330       0.00 
108194.9770       0.00 
108195.2210       0.00 
108195.4650       0.00 
108195.7090       0.00 
108195.9530       0.00 
108196.1970       0.00 
108196.4410       0.00 
108196.6850       0.00 
108196.9290       0.00 
108197.1730       0.00 
108197.4170       0.00 
108197.6610       0.00 
108197.9050       0.00 
108198.1490       0.00 
108198.3930       0.00 
108198.6370       0.00 
108198.8810       0.00 
108199.1250       0.00 
108199.3690       0.00 
108199.6130       0.00 
108199.8570       0.00 
108200.1010       0.00 
108200.3450       0.00 
108200.5890       0.00 
108200.8330       0.00 
108201.0770       0.00 
108201.3210       0.00 
108201.5650       0.00 
108201.8090       0.00 
108202.0530       0.00 
108202.2970       0.00 
108202.5410       0.00 
108202.7850       0.00 
108203.0290       0.00 
108203.2730       0.00 
108203.5170       0.00 
108203.7610       0.00 
108204.0050       0.00 
108204.2490       0.00 
108204.4930       0.00 
108204.7370       0.00 
108204.9810       0.00 
108205.2250       0.00 
108205.4690       0.00 
108205.7130       0.00 
108205.9570       0.00 
108206.2010       0.00 
108206.4450       0.00 
108206.6890       0.00 
108206.9330       0.00 
108207.1770       0.00 
108207.4210       0.00 
108207.6650       0.00 
108207.9090       0.00 
108208.1530       0.00 
108208.3970       0.00 
108208.6410       0.00 
108208.8850       0.00 
108209.1290       0.00 
108209.3730       0.00 
108209.6170       0.00 
108209.8610       0.00 
108210.1050       0.00 
108210.3490       0.00 
108210.5930       0.00 
108210.8370       0.00 
108211.0810       0.00 
108211.3250       0.00 
108211.5690       0.00 
108211.8130       0.00 
108212.0570       0.00 
108212.3010       0.00 
108212.5450       0.00 
108212.7890       0.00 
108213.0330       0.00 
108213.2770       0.00 
108213.5210       0.00 
108213.7650       0.00 
108214.0090       0.00 
108214.2530       0.00 
108214.4970       0.00 
108214.7410       0.00 
108214.9850       0.00 
108215.2290       0.00 
108215.4730       0.00 
108215.7170       0.00 
108215.9610       0.00 
108216.2050       0.00 
108216.4490       0.00 
108216.6930       0.00 
108216.9370       0.00 
108217.1810       0.00 
108217.4250       0.00 
108217.6690       0.00 
108217.9130       0.00 
108218.1570       0.00 
108218.4010       0.00 
108218.6450       0.00 
108218.8890       0.00 
108219.1330       0.00 
108219.3770       0.00 
108219.6210       0.00 
108219.8650       0.00 
108220.1090       0.00 
108220.3530       0.00 
108220.5970       0.00 
108220.8410       0.00 
108221.0850       0.00 
108221.3290       0.00 
108221.5730       0.00 
108221.8170       0.00 
108222.0610       0.00 
108222.3050       0.00 
108222.5490       0.00 
108222.7930       0.00 
108223.0370       0.00 
108223.2810       0.00 
108223.5250       0.00 
108223.7690       0.00 
108224.0130       0.00 
108224.2570       0.00 
108224.5010       0.00 
108224.7450       0.00 
108224.9890       0.00 
108225.2330       0.00 
108225.4770       0.00 
108225.7210       0.00 
108225.9650       0.00 
108226.2090       0.00 
108226.4530       0.00 
108226.6970       0.00 
108226.9410       0.00 
108227.1850       0.00 
108227.4290       0.00 
108227.6730       0.00 
108227.9170       0.00 
108228.1610       0.00 
108228.4050       0.00 
108228.6490       0.00 
108228.8930       0.00 
108229.1370       0.00 
108229.3810       0.00 
108229.6250       0.00 
108229.8690       0.00 
108230.1130       0.00 
108230.3570       0.00 
108230.6010       0.00 
108230.8450       0.00 
108231.0890       0.00 
108231.3330       0.00 
108231.5770       0.00 
108231.8210       0.00 
108232.0650       0.00 
108232.3090       0.00 
108232.5530       0.00 
108232.7970       0.00 
108233.0410       0.00 
108233.2850       0.00 
108233.5290       0.00 
108233.7730       0.00 
108234.0170       0.00 
108234.2610       0.00 
108234.5050       0.00 
108234.7490       0.00 
108234.9930       0.00 
108235.2370       0.00 
108235.4810       0.00 
108235.7250       0.00 
108235.9690       0.00 
108236.2130       0.00 
108236.4570       0.00 
108236.7010       0.00 
108236.9450       0.00 
108237.1890       0.00 
108237.4330       0.00 
108237.6770       0.00 
108237.9210       0.00 
108238.1650       0.00 
108238.4090       0.00 
108238.6530       0.00 
108238.8970       0.00 
108239.1410       0.00 
108239.3850       0.00 
108239.6290       0.00 
108239.8730       0.00 
108240.1170       0.00 
108240.3610       0.00 
108240.6050       0.00 
108240.8490       0.00 
108241.0930       0.00 
108241.3370       0.00 
108241.5810       0.00 
108241.8250       0.00 
108242.0690       0.00 
108242.3130       0.00 
108242.5570       0.00 
108242.8010       0.00 
108243.0450       0.00 
108243.2890       0.00 
108243.5330       0.00 
108243.7770       0.00 
108244.0210       0.00 
108244.2650       0.00 
108244.5090       0.00 
108244.7530       0.00 
108244.9970       0.00 
108245.2410       0.00 
108245.4850       0.00 
108245.7290       0.00 
108245.9730       0.00 
108246.2170       0.00 
108246.4610       0.00 
108246.7050       0.00 
108246.9490       0.00 
108247.1930       0.00 
108247.4370       0.00 
108247.6810       0.00 
108247.9250       0.00 
108248.1690       0.00 
108248.4130       0.00 
108248.6570       0.00 
108248.9010       0.00 
108249.1450       0.00 
108249.3890       0.00 
108249.6330       0.00 
108249.8770       0.00 
108250.1210       0.00 
108250.3650       0.00 
108250.6090       0.00 
108250.8530       0.00 
108251.0970       0.00 
108251.3410       0.00 
108251.5850       0.00 
108251.8290       0.00 
108252.0730       0.00 
108252.3170       0.00 
108252.5610       0.00 
108252.8050       0.00 
108253.0490       0.00 
108253.2930       0.00 
108253.5370       0.00 
108253.7810       0.00 
108254.0250       0.00 
108254.2690       0.00 
108254.5130       0.00 
108254.7570       0.00 
108255.0010       0.00 
108255.2450       0.00 
108255.4890       0.00 
108255.7330       0.00 
108255.9770       0.00 
108256.2210       0.00 
108256.4650       0.00 
108256.7090       0.00 
108256.9530       0.00 
108257.1970       0.00 
108257.4410       0.00 
108257.6850       0.00 
108257.9290       0.00 
108258.1730       0.00 
108258.4170       0.00 
108258.6610       0.00 
108258.9050       0.00 
108259.1490       0.00 
108259.3930       0.00 
108259.6370       0.00 
108259.8810       0.00 
108260.1250       0.00 
108260.3690       0.00 
108260.6130       0.00 
108260.8570       0.00 
108261.1010       0.00 
108261.3450       0.00 
108261.5890       0.00 
108261.8330       0.00 
108262.0770       0.00 
108262.3210       0.00 
108262.5650       0.00 
108262.8090       0.00 
108263.0530       0.00 
108263.2970       0.00 
108263.5410       0.00 
108263.7850       0.00 
108264.0290       0.00 
108264.2730       0.00 
108264.5170       0.00 
108264.7610       0.00 
108265.0050       0.00 
108265.2490       0.00 
108265.4930       0.00 
108265.7370       0.00 
108265.9810       0.00 
108266.2250       0.00 
108266.4690       0.00 
108266.7130       0.00 
108266.9570       0.00 
108267.2010       0.00 
108267.4450       0.00 
108267.6890       0.00 
108267.9330       0.00 
108268.1770       0.00 
108268.4210       0.00 
108268.6650       0.00 
108268.9090       0.00 
108269.1530       0.00 
108269.3970       0.00 
108269.6410       0.00 
108269.8850       0.00 
108270.1290       0.00 
108270.3730       0.00 
108270.6170       0.00 
108270.8610       0.00 
108271.1050       0.00 
108271.3490       0.00 
108271.5930       0.00 
108271.8370       0.00 
108272.0810       0.00 
108272.3250       0.00 
108272.5690       0.00 
108272.8130       0.00 
108273.0570       0.00 
108273.3010       0.00 
108273.5450       0.00 
108273.7890       0.00 
108274.0330       0.00 
108274.2770       0.00 
108274.5210       0.00 
108274.7650       0.00 
108275.0090       0.00 
108275.2530       0.00 
108275.4970       0.00 
108275.7410       0.00 
108275.9850       0.00 
108276.2290       0.00 
108276.4730       0.00 
108276.7170       0.00 
108276.9610       0.00 
108277.2050       0.00 
108277.4490       0.00 
108277.6930       0.00 
108277.9370       0.00 
108278.1810       0.00 
108278.4250       0.00 
108278.6690       0.00 
108278.9130       0.00 
108279.1570       0.00 
108279.4010       0.00 
108279.6450       0.00 
108279.8890       0.00 
108280.1330       0.00 
108280.3770       0.00 
108280.6210       0.00 
108280.8650       0.00 
108281.1090       0.00 
108281.3530       0.00 
108281.5970       0.00 
108281.8410       0.00 
108282.0850       0.00 
108282.3290       0.00 
108282.5730       0.00 
108282.8170       0.00 
108283.0610       0.00 
108283.3050       0.00 
108283.5490       0.00 
108283.7930       0.00 
108284.0370       0.00 
108284.2810       0.00 
108284.5250       0.00 
108284.7690       0.00 
108285.0130       0.00 
108285.2570       0.00 
108285.5010       0.00 
108285.7450       0.00 
108285.9890       0.00 
108286.2330       0.00 
108286.4770       0.00 
108286.7210       0.00 
108286.9650       0.00 
108287.2090       0.00 
108287.4530       0.00 
108287.6970       0.00 
108287.9410       0.00 
108288.1850       0.00 
108288.4290       0.00 
108288.6730       0.00 
108288.9170       0.00 
108289.1610       0.00 
108289.4050       0.00 
108289.6490       0.00 
108289.8930       0.00 
108290.1370       0.00 
108290.3810       0.00 
108290.6250       0.00 
108290.8690       0.00 
108291.1130       0.00 
108291.3570       0.00 
108291.6010       0.00 
108291.8450       0.00 
108292.0890       0.00 
108292.3330       0.00 
108292.5770       0.00 
108292.8210       0.00 
108293.0650       0.00 
108293.3090       0.00 
108293.5530       0.00 
108293.7970       0.00 
108294.0410       0.00 
108294.2850       0.00 
108294.5290       0.00 
108294.7730       0.00 
108295.0170       0.00 
108295.2610       0.00 
108295.5050       0.00 
108295.7490       0.00 
108295.9930       0.00 
108296.2370       0.00 
108296.4810       0.00 
108296.7250       0.00 
108296.9690       0.00 
108297.2130       0.00 
108297.4570       0.00 
108297.7010       0.00 
108297.9450       0.00 
108298.1890       0.00 
108298.4330       0.00 
108298.6770       0.00 
108298.9210       0.00 
108299.1650       0.00 
108299.4090       0.00 
108299.6530       0.00 
108299.8970       0.00 
108300.1410       0.00 
108300.3850       0.00 
108300.6290       0.00 
108300.8730       0.00 
108301.1170       0.00 
108301.3610       0.00 
108301.6050       0.00 
108301.8490       0.00 
108302.0930       0.00 
108302.3370       0.00 
108302.5810       0.00 
108302.8250       0.00 
108303.0690       0.00 
108303.3130       0.00 
108303.5570       0.00 
108303.8010       0.00 
108304.0450       0.00 
108304.2890       0.00 
108304.5330       0.00 
108304.7770       0.00 
108305.0210       0.00 
108305.2650       0.00 
108305.5090       0.00 
108305.7530       0.00 
108305.9970       0.00 
108306.2410       0.00 
108306.4850       0.00 
108306.7290       0.00 
108306.9730       0.00 
108307.2170       0.00 
108307.4610       0.00 
108307.7050       0.00 
108307.9490       0.00 
108308.1930       0.00 
108308.4370       0.00 
108308.6810       0.00 
108308.9250       0.00 
108309.1690       0.00 
108309.4130       0.00 
108309.6570       0.00 
108309.9010       0.00 
108310.1450       0.00 
108310.3890       0.00 
108310.6330       0.00 
108310.8770       0.00 
108311.1210       0.00 
108311.3650       0.00 
108311.6090       0.00 
108311.8530       0.00 
108312.0970       0.00 
108312.3410       0.00 
108312.5850       0.00 
108312.8290       0.00 
108313.0730       0.00 
108313.3170       0.00 
108313.5610       0.00 
108313.8050       0.00 
108314.0490       0.00 
108314.2930       0.00 
108314.5370       0.00 
108314.7810       0.00 
108315.0250       0.00 
108315.2690       0.00 
108315.5130       0.00 
108315.7570       0.00 
108316.0010       0.00 
108316.2450       0.00 
108316.4890       0.00 
108316.7330       0.00 
108316.9770       0.00 
108317.2210       0.00 
108317.4650       0.00 
108317.7090       0.00 
108317.9530       0.00 
108318.1970       0.00 
108318.4410       0.00 
108318.6850       0.00 
108318.9290       0.00 
108319.1730       0.00 
108319.4170       0.00 
108319.6610       0.00 
108319.9050       0.00 
108320.1490       0.00 
108320.3930       0.00 
108320.6370       0.00 
108320.8810       0.00 
108321.1250       0.00 
108321.3690       0.00 
108321.6130       0.00 
108321.8570       0.00 
108322.1010       0.00 
108322.3450       0.00 
108322.5890       0.00 
108322.8330       0.00 
108323.0770       0.00 
108323.3210       0.00 
108323.5650       0.00 
108323.8090       0.00 
108324.0530       0.00 
108324.2970       0.00 
108324.5410       0.00 
108324.7850       0.00 
108325.0290       0.00 
108325.2730       0.00 
108325.5170       0.00 
108325.7610       0.00 
108326.0050       0.00 
108326.2490       0.00 
108326.4930       0.00 
108326.7370       0.00 
108326.9810       0.00 
108327.2250       0.00 
108327.4690       0.00 
108327.7130       0.00 
108327.9570       0.00 
108328.2010       0.00 
108328.4450       0.00 
108328.6890       0.00 
108328.9330       0.00 
108329.1770       0.00 
108329.4210       0.00 
108329.6650       0.00 
108329.9090       0.00 
108330.1530       0.00 
108330.3970       0.00 
108330.6410       0.00 
108330.8850       0.00 
108331.1290       0.00 
108331.3730       0.00 
108331.6170       0.00 
108331.8610       0.00 
108332.1050       0.00 
108332.3490       0.00 
108332.5930       0.00 
108332.8370       0.00 
108333.0810       0.00 
108333.3250       0.00 
108333.5690       0.00 
108333.8130       0.00 
108334.0570       0.00 
108334.3010       0.00 
108334.5450       0.00 
108334.7890       0.00 
108335.0330       0.00 
108335.2770       0.00 
108335.5210       0.00 
108335.7650       0.00 
108336.0090       0.00 
108336.2530       0.00 
108336.4970       0.00 
108336.7410       0.00 
108336.9850       0.00 
108337.2290       0.00 
108337.4730       0.00 
108337.7170       0.00 
108337.9610       0.00 
108338.2050       0.00 
108338.4490       0.00 
108338.6930       0.00 
108338.9370       0.00 
108339.1810       0.00 
108339.4250       0.00 
108339.6690       0.00 
108339.9130       0.00 
108340.1570       0.00 
108340.4010       0.00 
108340.6450       0.00 
108340.8890       0.00 
108341.1330       0.00 
108341.3770       0.00 
108341.6210       0.00 
108341.8650       0.00 
108342.1090       0.00 
108342.3530       0.00 
108342.5970       0.00 
108342.8410       0.00 
108343.0850       0.00 
108343.3290       0.00 
108343.5730       0.00 
108343.8170       0.00 
108344.0610       0.00 
108344.3050       0.00 
108344.5490       0.00 
108344.7930       0.00 
108345.0370       0.00 
108345.2810       0.00 
108345.5250       0.00 
108345.7690       0.00 
108346.0130       0.00 
108346.2570       0.00 
108346.5010       0.00 
108346.7450       0.00 
108346.9890       0.00 
108347.2330       0.00 
108347.4770       0.00 
108347.7210       0.00 
108347.9650       0.00 
108348.2090       0.00 
108348.4530       0.00 
108348.6970       0.00 
108348.9410       0.00 
108349.1850       0.00 
108349.4290       0.00 
108349.6730       0.00 
108349.9170       0.00 
108350.1610       0.00 
108350.4050       0.00 
108350.6490       0.00 
108350.8930       0.00 
108351.1370       0.00 
108351.3810       0.00 
108351.6250       0.00 
108351.8690       0.00 
108352.1130       0.00 
108352.3570       0.00 
108352.6010       0.00 
108352.8450       0.00 
108353.0890       0.00 
108353.3330       0.00 
108353.5770       0.00 
108353.8210       0.00 
108354.0650       0.00 
108354.3090       0.00 
108354.5530       0.00 
108354.7970       0.00 
108355.0410       0.00 
108355.2850       0.00 
108355.5290       0.00 
108355.7730       0.00 
108356.0170       0.00 
108356.2610       0.00 
108356.5050       0.00 
108356.7490       0.00 
108356.9930       0.00 
108357.2370       0.00 
108357.4810       0.00 
108357.7250       0.00 
108357.9690       0.00 
108358.2130       0.00 
108358.4570       0.00 
108358.7010       0.00 
108358.9450       0.00 
108359.1890       0.00 
108359.4330       0.00 
108359.6770       0.00 
108359.9210       0.00 
108360.1650       0.00 
108360.4090       0.00 
108360.6530       0.00 
108360.8970       0.00 
108361.1410       0.00 
108361.3850       0.00 
108361.6290       0.00 
108361.8730       0.00 
108362.1170       0.00 
108362.3610       0.00 
108362.6050       0.00 
108362.8490       0.00 
108363.0930       0.00 
108363.3370       0.00 
108363.5810       0.00 
108363.8250       0.00 
108364.0690       0.00 
108364.3130       0.00 
108364.5570       0.00 
108364.8010       0.00 
108365.0450       0.00 
108365.2890       0.00 
108365.5330       0.00 
108365.7770       0.00 
108366.0210       0.00 
108366.2650       0.00 
108366.5090       0.00 
108366.7530       0.00 
108366.9970       0.00 
108367.2410       0.00 
108367.4850       0.00 
108367.7290       0.00 
108367.9730       0.00 
108368.2170       0.00 
108368.4610       0.00 
108368.7050       0.00 
108368.9490       0.00 
108369.1930       0.00 
108369.4370       0.00 
108369.6810       0.00 
108369.9250       0.00 
108370.1690       0.00 
108370.4130       0.00 
108370.6570       0.00 
108370.9010       0.00 
108371.1450       0.00 
108371.3890       0.00 
108371.6330       0.00 
108371.8770       0.00 
108372.1210       0.00 
108372.3650       0.00 
108372.6090       0.00 
108372.8530       0.00 
108373.0970       0.00 
108373.3410       0.00 
108373.5850       0.00 
108373.8290       0.00 
108374.0730       0.00 
108374.3170       0.00 
108374.5610       0.00 
108374.8050       0.00 
108375.0490       0.00 
108375.2930       0.00 
108375.5370       0.00 
108375.7810       0.00 
108376.0250       0.00 
108376.2690       0.00 
108376.5130       0.00 
108376.7570       0.00 
108377.0010       0.00 
108377.2450       0.00 
108377.4890       0.00 
108377.7330       0.00 
108377.9770       0.00 
108378.2210       0.00 
108378.4650       0.00 
108378.7090       0.00 
108378.9530       0.00 
108379.1970       0.00 
108379.4410       0.00 
108379.6850       0.00 
108379.9290       0.00 
108380.1730       0.00 
108380.4170       0.00 
108380.6610       0.00 
108380.9050       0.00 
108381.1490       0.00 
108381.3930       0.00 
108381.6370       0.00 
108381.8810       0.00 
108382.1250       0.00 
108382.3690       0.00 
108382.6130       0.00 
108382.8570       0.00 
108383.1010       0.00 
108383.3450       0.00 
108383.5890       0.00 
108383.8330       0.00 
108384.0770       0.00 
108384.3210       0.00 
108384.5650       0.00 
108384.8090       0.00 
108385.0530       0.00 
108385.2970       0.00 
108385.5410       0.00 
108385.7850       0.00 
108386.0290       0.00 
108386.2730       0.00 
108386.5170       0.00 
108386.7610       0.00 
108387.0050       0.00 
108387.2490       0.00 
108387.4930       0.00 
108387.7370       0.00 
108387.9810       0.00 
108388.2250       0.00 
108388.4690       0.00 
108388.7130       0.00 
108388.9570       0.00 
108389.2010       0.00 
108389.4450       0.00 
108389.6890       0.00 
108389.9330       0.00 
108390.1770       0.00 
108390.4210       0.00 
108390.6650       0.00 
108390.9090       0.00 
108391.1530       0.00 
108391.3970       0.00 
108391.6410       0.00 
108391.8850       0.00 
108392.1290       0.00 
108392.3730       0.00 
108392.6170       0.00 
108392.8610       0.00 
108393.1050       0.00 
108393.3490       0.00 
108393.5930       0.00 
108393.8370       0.00 
108394.0810       0.00 
108394.3250       0.00 
108394.5690       0.00 
108394.8130       0.00 
108395.0570       0.00 
108395.3010       0.00 
108395.5450       0.00 
108395.7890       0.00 
108396.0330       0.00 
108396.2770       0.00 
108396.5210       0.00 
108396.7650       0.00 
108397.0090       0.00 
108397.2530       0.00 
108397.4970       0.00 
108397.7410       0.00 
108397.9850       0.00 
108398.2290       0.00 
108398.4730       0.00 
108398.7170       0.00 
108398.9610       0.00 
108399.2050       0.00 
108399.4490       0.00 
108399.6930       0.00 
108399.9370       0.00 
108400.1810       0.00 
108400.4250       0.00 
108400.6690       0.00 
108400.9130       0.00 
108401.1570       0.00 
108401.4010       0.00 
108401.6450       0.00 
108401.8890       0.00 
108402.1330       0.00 
108402.3770       0.00 
108402.6210       0.00 
108402.8650       0.00 
108403.1090       0.00 
108403.3530       0.00 
108403.5970       0.00 
108403.8410       0.00 
108404.0850       0.00 
108404.3290       0.00 
108404.5730       0.00 
108404.8170       0.00 
108405.0610       0.00 
108405.3050       0.00 
108405.5490       0.00 
108405.7930       0.00 
108406.0370       0.00 
108406.2810       0.00 
108406.5250       0.00 
108406.7690       0.00 
108407.0130       0.00 
108407.2570       0.00 
108407.5010       0.00 
108407.7450       0.00 
108407.9890       0.00 
108408.2330       0.00 
108408.4770       0.00 
108408.7210       0.00 
108408.9650       0.00 
108409.2090       0.00 
108409.4530       0.00 
108409.6970       0.00 
108409.9410       0.00 
108410.1850       0.00 
108410.4290       0.00 
108410.6730       0.00 
108410.9170       0.00 
108411.1610       0.00 
108411.4050       0.00 
108411.6490       0.00 
108411.8930       0.00 
108412.1370       0.00 
108412.3810       0.00 
108412.6250       0.00 
108412.8690       0.00 
108413.1130       0.00 
108413.3570       0.00 
108413.6010       0.00 
108413.8450       0.00 
108414.0890       0.00 
108414.3330       0.00 
108414.5770       0.00 
108414.8210       0.00 
108415.0650       0.00 
108415.3090       0.00 
108415.5530       0.00 
108415.7970       0.00 
108416.0410       0.00 
108416.2850       0.00 
108416.5290       0.00 
108416.7730       0.00 
108417.0170       0.00 
108417.2610       0.00 
108417.5050       0.00 
108417.7490       0.00 
108417.9930       0.00 
108418.2370       0.00 
108418.4810       0.00 
108418.7250       0.00 
108418.9690       0.00 
108419.2130       0.00 
108419.4570       0.00 
108419.7010       0.00 
108419.9450       0.00 
108420.1890       0.00 
108420.4330       0.00 
108420.6770       0.00 
108420.9210       0.00 
108421.1650       0.00 
108421.4090       0.00 
108421.6530       0.00 
108421.8970       0.00 
108422.1410       0.00 
108422.3850       0.00 
108422.6290       0.00 
108422.8730       0.00 
108423.1170       0.00 
108423.3610       0.00 
108423.6050       0.00 
108423.8490       0.00 
108424.0930       0.00 
108424.3370       0.00 
108424.5810       0.00 
108424.8250       0.00 
108425.0690       0.00 
108425.3130       0.00 
108425.5570       0.00 
108425.8010       0.00 
108426.0450       0.00 
108426.2890       0.00 
108426.5330       0.00 
108426.7770       0.00 
108427.0210       0.00 
108427.2650       0.00 
108427.5090       0.00 
108427.7530       0.00 
108427.9970       0.00 
108428.2410       0.00 
108428.4850       0.00 
108428.7290       0.00 
108428.9730       0.00 
108429.2170       0.00 
108429.4610       0.00 
108429.7050       0.00 
108429.9490       0.00 
108430.1930       0.00 
108430.4370       0.00 
108430.6810       0.00 
108430.9250       0.00 
108431.1690       0.00 
108431.4130       0.00 
108431.6570       0.00 
108431.9010       0.00 
108432.1450       0.00 
108432.3890       0.00 
108432.6330       0.00 
108432.8770       0.00 
108433.1210       0.00 
108433.3650       0.00 
108433.6090       0.00 
108433.8530       0.00 
108434.0970       0.00 
108434.3410       0.00 
108434.5850       0.00 
108434.8290       0.00 
108435.0730       0.00 
108435.3170       0.00 
108435.5610       0.00 
108435.8050       0.00 
108436.0490       0.00 
108436.2930       0.00 
108436.5370       0.00 
108436.7810       0.00 
108437.0250       0.00 
108437.2690       0.00 
108437.5130       0.00 
108437.7570       0.00 
108438.0010       0.00 
108438.2450       0.00 
108438.4890       0.00 
108438.7330       0.00 
108438.9770       0.00 
108439.2210       0.00 
108439.4650       0.00 
108439.7090       0.00 
108439.9530       0.00 
108440.1970       0.00 
108440.4410       0.00 
108440.6850       0.00 
108440.9290       0.00 
108441.1730       0.00 
108441.4170       0.00 
108441.6610       0.00 
108441.9050       0.00 
108442.1490       0.00 
108442.3930       0.00 
108442.6370       0.00 
108442.8810       0.00 
108443.1250       0.00 
108443.3690       0.00 
108443.6130       0.00 
108443.8570       0.00 
108444.1010       0.00 
108444.3450       0.00 
108444.5890       0.00 
108444.8330       0.00 
108445.0770       0.00 
108445.3210       0.00 
108445.5650       0.00 
108445.8090       0.00 
108446.0530       0.00 
108446.2970       0.00 
108446.5410       0.00 
108446.7850       0.00 
108447.0290       0.00 
108447.2730       0.00 
108447.5170       0.00 
108447.7610       0.00 
108448.0050       0.00 
108448.2490       0.00 
108448.4930       0.00 
108448.7370       0.00 
108448.9810       0.00 
108449.2250       0.00 
108449.4690       0.00 
108449.7130       0.00 
108449.9570       0.00 
108450.2010       0.00 
108450.4450       0.00 
108450.6890       0.00 
108450.9330       0.00 
108451.1770       0.00 
108451.4210       0.00 
108451.6650       0.00 
108451.9090       0.00 
108452.1530       0.00 
108452.3970       0.00 
108452.6410       0.00 
108452.8850       0.00 
108453.1290       0.00 
108453.3730       0.00 
108453.6170       0.00 
108453.8610       0.00 
108454.1050       0.00 
108454.3490       0.00 
108454.5930       0.00 
108454.8370       0.00 
108455.0810       0.00 
108455.3250       0.00 
108455.5690       0.00 
108455.8130       0.00 
108456.0570       0.00 
108456.3010       0.00 
108456.5450       0.00 
108456.7890       0.00 
108457.0330       0.00 
108457.2770       0.00 
108457.5210       0.00 
108457.7650       0.00 
108458.0090       0.00 
108458.2530       0.00 
108458.4970       0.00 
108458.7410       0.00 
108458.9850       0.00 
108459.2290       0.00 
108459.4730       0.00 
108459.7170       0.00 
108459.9610       0.00 
108460.2050       0.00 
108460.4490       0.00 
108460.6930       0.00 
108460.9370       0.00 
108461.1810       0.00 
108461.4250       0.00 
108461.6690       0.00 
108461.9130       0.00 
108462.1570       0.00 
108462.4010       0.00 
108462.6450       0.00 
108462.8890       0.00 
108463.1330       0.00 
108463.3770       0.00 
108463.6210       0.00 
108463.8650       0.00 
108464.1090       0.00 
108464.3530       0.00 
108464.5970       0.00 
108464.8410       0.00 
108465.0850       0.00 
108465.3290       0.00 
108465.5730       0.00 
108465.8170       0.00 
108466.0610       0.00 
108466.3050       0.00 
108466.5490       0.00 
108466.7930       0.00 
108467.0370       0.00 
108467.2810       0.00 
108467.5250       0.00 
108467.7690       0.00 
108468.0130       0.00 
108468.2570       0.00 
108468.5010       0.00 
108468.7450       0.00 
108468.9890       0.00 
108469.2330       0.00 
108469.4770       0.00 
108469.7210       0.00 
108469.9650       0.00 
108470.2090       0.00 
108470.4530       0.00 
108470.6970       0.00 
108470.9410       0.00 
108471.1850       0.00 
108471.4290       0.00 
108471.6730       0.00 
108471.9170       0.00 
108472.1610       0.00 
108472.4050       0.00 
108472.6490       0.00 
108472.8930       0.00 
108473.1370       0.00 
108473.3810       0.00 
108473.6250       0.00 
108473.8690       0.00 
108474.1130       0.00 
108474.3570       0.00 
108474.6010       0.00 
108474.8450       0.00 
108475.0890       0.00 
108475.3330       0.00 
108475.5770       0.00 
108475.8210       0.00 
108476.0650       0.00 
108476.3090       0.00 
108476.5530       0.00 
108476.7970       0.00 
108477.0410       0.00 
108477.2850       0.00 
108477.5290       0.00 
108477.7730       0.00 
108478.0170       0.00 
108478.2610       0.00 
108478.5050       0.00 
108478.7490       0.00 
108478.9930       0.00 
108479.2370       0.00 
108479.4810       0.00 
108479.7250       0.00 
108479.9690       0.00 
108480.2130       0.00 
108480.4570       0.00 
108480.7010       0.00 
108480.9450       0.00 
108481.1890       0.00 
108481.4330       0.00 
108481.6770       0.00 
108481.9210       0.00 
108482.1650       0.00 
108482.4090       0.00 
108482.6530       0.00 
108482.8970       0.00 
108483.1410       0.00 
108483.3850       0.00 
108483.6290       0.00 
108483.8730       0.00 
108484.1170       0.00 
108484.3610       0.00 
108484.6050       0.00 
108484.8490       0.00 
108485.0930       0.00 
108485.3370       0.00 
108485.5810       0.00 
108485.8250       0.00 
108486.0690       0.00 
108486.3130       0.00 
108486.5570       0.00 
108486.8010       0.00 
108487.0450       0.00 
108487.2890       0.00 
108487.5330       0.00 
108487.7770       0.00 
108488.0210       0.00 
108488.2650       0.00 
108488.5090       0.00 
108488.7530       0.00 
108488.9970       0.00 
108489.2410       0.00 
108489.4850       0.00 
108489.7290       0.00 
108489.9730       0.00 
108490.2170       0.00 
108490.4610       0.00 
108490.7050       0.00 
108490.9490       0.00 
108491.1930       0.00 
108491.4370       0.00 
108491.6810       0.00 
108491.9250       0.00 
108492.1690       0.00 
108492.4130       0.00 
108492.6570       0.00 
108492.9010       0.00 
108493.1450       0.00 
108493.3890       0.00 
108493.6330       0.00 
108493.8770       0.00 
108494.1210       0.00 
108494.3650       0.00 
108494.6090       0.00 
108494.8530       0.00 
108495.0970       0.00 
108495.3410       0.00 
108495.5850       0.00 
108495.8290       0.00 
108496.0730       0.00 
108496.3170       0.00 
108496.5610       0.00 
108496.8050       0.00 
108497.0490       0.00 
108497.2930       0.00 
108497.5370       0.00 
108497.7810       0.00 
108498.0250       0.00 
108498.2690       0.00 
108498.5130       0.00 
108498.7570       0.00 
108499.0010       0.00 
108499.2450       0.00 
108499.4890       0.00 
108499.7330       0.00 
108499.9770       0.00 
108500.2210       0.00 
108500.4650       0.00 
108500.7090       0.00 
108500.9530       0.00 
108501.1970       0.00 
108501.4410       0.00 
108501.6850       0.00 
108501.9290       0.00 
108502.1730       0.00 
108502.4170       0.00 
108502.6610       0.00 
108502.9050       0.00 
108503.1490       0.00 
108503.3930       0.00 
108503.6370       0.00 
108503.8810       0.00 
108504.1250       0.00 
108504.3690       0.00 
108504.6130       0.00 
108504.8570       0.00 
108505.1010       0.00 
108505.3450       0.00 
108505.5890       0.00 
108505.8330       0.00 
108506.0770       0.00 
108506.3210       0.00 
108506.5650       0.00 
108506.8090       0.00 
108507.0530       0.00 
108507.2970       0.00 
108507.5410       0.00 
108507.7850       0.00 
108508.0290       0.00 
108508.2730       0.00 
108508.5170       0.00 
108508.7610       0.00 
108509.0050       0.00 
108509.2490       0.00 
108509.4930       0.00 
108509.7370       0.00 
108509.9810       0.00 
108510.2250       0.00 
108510.4690       0.00 
108510.7130       0.00 
108510.9570       0.00 
108511.2010       0.00 
108511.4450       0.00 
108511.6890       0.00 
108511.9330       0.00 
108512.1770       0.00 
108512.4210       0.00 
108512.6650       0.00 
108512.9090       0.00 
108513.1530       0.00 
108513.3970       0.00 
108513.6410       0.00 
108513.8850       0.00 
108514.1290       0.00 
108514.3730       0.00 
108514.6170       0.00 
108514.8610       0.00 
108515.1050       0.00 
108515.3490       0.00 
108515.5930       0.00 
108515.8370       0.00 
108516.0810       0.00 
108516.3250       0.00 
108516.5690       0.00 
108516.8130       0.00 
108517.0570       0.00 
108517.3010       0.00 
108517.5450       0.00 
108517.7890       0.00 
108518.0330       0.00 
108518.2770       0.00 
108518.5210       0.00 
108518.7650       0.00 
108519.0090       0.00 
108519.2530       0.00 
108519.4970       0.00 
108519.7410       0.00 
108519.9850       0.00 
108520.2290       0.00 
108520.4730       0.00 
108520.7170       0.00 
108520.9610       0.00 
108521.2050       0.00 
108521.4490       0.00 
108521.6930       0.00 
108521.9370       0.00 
108522.1810       0.00 
108522.4250       0.00 
108522.6690       0.00 
108522.9130       0.00 
108523.1570       0.00 
108523.4010       0.00 
108523.6450       0.00 
108523.8890       0.00 
108524.1330       0.00 
108524.3770       0.00 
108524.6210       0.00 
108524.8650       0.00 
108525.1090       0.00 
108525.3530       0.00 
108525.5970       0.00 
108525.8410       0.00 
108526.0850       0.00 
108526.3290       0.00 
108526.5730       0.00 
108526.8170       0.00 
108527.0610       0.00 
108527.3050       0.00 
108527.5490       0.00 
108527.7930       0.00 
108528.0370       0.00 
108528.2810       0.00 
108528.5250       0.00 
108528.7690       0.00 
108529.0130       0.00 
108529.2570       0.00 
108529.5010       0.00 
108529.7450       0.00 
108529.9890       0.00 
108530.2330       0.00 
108530.4770       0.00 
108530.7210       0.00 
108530.9650       0.00 
108531.2090       0.00 
108531.4530       0.00 
108531.6970       0.00 
108531.9410       0.00 
108532.1850       0.00 
108532.4290       0.00 
108532.6730       0.00 
108532.9170       0.00 
108533.1610       0.00 
108533.4050       0.00 
108533.6490       0.00 
108533.8930       0.00 
108534.1370       0.00 
108534.3810       0.00 
108534.6250       0.00 
108534.8690       0.00 
108535.1130       0.00 
108535.3570       0.00 
108535.6010       0.00 
108535.8450       0.00 
108536.0890       0.00 
108536.3330       0.00 
108536.5770       0.00 
108536.8210       0.00 
108537.0650       0.00 
108537.3090       0.00 
108537.5530       0.00 
108537.7970       0.00 
108538.0410       0.00 
108538.2850       0.00 
108538.5290       0.00 
108538.7730       0.00 
108539.0170       0.00 
108539.2610       0.00 
108539.5050       0.00 
108539.7490       0.00 
108539.9930       0.00 
108540.2370       0.00 
108540.4810       0.00 
108540.7250       0.00 
108540.9690       0.00 
108541.2130       0.00 
108541.4570       0.00 
108541.7010       0.00 
108541.9450       0.00 
108542.1890       0.00 
108542.4330       0.00 
108542.6770       0.00 
108542.9210       0.00 
108543.1650       0.00 
108543.4090       0.00 
108543.6530       0.00 
108543.8970       0.00 
108544.1410       0.00 
108544.3850       0.00 
108544.6290       0.00 
108544.8730       0.00 
108545.1170       0.00 
108545.3610       0.00 
108545.6050       0.00 
108545.8490       0.00 
108546.0930       0.00 
108546.3370       0.00 
108546.5810       0.00 
108546.8250       0.00 
108547.0690       0.00 
108547.3130       0.00 
108547.5570       0.00 
108547.8010       0.00 
108548.0450       0.00 
108548.2890       0.00 
108548.5330       0.00 
108548.7770       0.00 
108549.0210       0.00 
108549.2650       0.00 
108549.5090       0.00 
108549.7530       0.00 
108549.9970       0.00 
108550.2410       0.00 
108550.4850       0.00 
108550.7290       0.00 
108550.9730       0.00 
108551.2170       0.00 
108551.4610       0.00 
108551.7050       0.00 
108551.9490       0.00 
108552.1930       0.00 
108552.4370       0.00 
108552.6810       0.00 
108552.9250       0.00 
108553.1690       0.00 
108553.4130       0.00 
108553.6570       0.00 
108553.9010       0.00 
108554.1450       0.00 
108554.3890       0.00 
108554.6330       0.00 
108554.8770       0.00 
108555.1210       0.00 
108555.3650       0.00 
108555.6090       0.00 
108555.8530       0.00 
108556.0970       0.00 
108556.3410       0.00 
108556.5850       0.00 
108556.8290       0.00 
108557.0730       0.00 
108557.3170       0.00 
108557.5610       0.00 
108557.8050       0.00 
108558.0490       0.00 
108558.2930       0.00 
108558.5370       0.00 
108558.7810       0.00 
108559.0250       0.00 
108559.2690       0.00 
108559.5130       0.00 
108559.7570       0.00 
108560.0010       0.00 
108560.2450       0.00 
108560.4890       0.00 
108560.7330       0.00 
108560.9770       0.00 
108561.2210       0.00 
108561.4650       0.00 
108561.7090       0.00 
108561.9530       0.00 
108562.1970       0.00 
108562.4410       0.00 
108562.6850       0.00 
108562.9290       0.00 
108563.1730       0.00 
108563.4170       0.00 
108563.6610       0.00 
108563.9050       0.00 
108564.1490       0.00 
108564.3930       0.00 
108564.6370       0.00 
108564.8810       0.00 
108565.1250       0.00 
108565.3690       0.00 
108565.6130       0.00 
108565.8570       0.00 
108566.1010       0.00 
108566.3450       0.00 
108566.5890       0.00 
108566.8330       0.00 
108567.0770       0.00 
108567.3210       0.00 
108567.5650       0.00 
108567.8090       0.00 
108568.0530       0.00 
108568.2970       0.00 
108568.5410       0.00 
108568.7850       0.00 
108569.0290       0.00 
108569.2730       0.00 
108569.5170       0.00 
108569.7610       0.00 
108570.0050       0.00 
108570.2490       0.00 
108570.4930       0.00 
108570.7370       0.00 
108570.9810       0.00 
108571.2250       0.00 
108571.4690       0.00 
108571.7130       0.00 
108571.9570       0.00 
108572.2010       0.00 
108572.4450       0.00 
108572.6890       0.00 
108572.9330       0.00 
108573.1770       0.00 
108573.4210       0.00 
108573.6650       0.00 
108573.9090       0.00 
108574.1530       0.00 
108574.3970       0.00 
108574.6410       0.00 
108574.8850       0.00 
108575.1290       0.00 
108575.3730       0.00 
108575.6170       0.00 
108575.8610       0.00 
108576.1050       0.00 
108576.3490       0.00 
108576.5930       0.00 
108576.8370       0.00 
108577.0810       0.00 
108577.3250       0.00 
108577.5690       0.00 
108577.8130       0.00 
108578.0570       0.00 
108578.3010       0.00 
108578.5450       0.00 
108578.7890       0.00 
108579.0330       0.00 
108579.2770       0.00 
108579.5210       0.00 
108579.7650       0.00 
108580.0090       0.00 
108580.2530       0.00 
108580.4970       0.00 
108580.7410       0.00 
108580.9850       0.00 
108581.2290       0.00 
108581.4730       0.00 
108581.7170       0.00 
108581.9610       0.00 
108582.2050       0.00 
108582.4490       0.00 
108582.6930       0.00 
108582.9370       0.00 
108583.1810       0.00 
108583.4250       0.00 
108583.6690       0.00 
108583.9130       0.00 
108584.1570       0.00 
108584.4010       0.00 
108584.6450       0.00 
108584.8890       0.00 
108585.1330       0.00 
108585.3770       0.00 
108585.6210       0.00 
108585.8650       0.00 
108586.1090       0.00 
108586.3530       0.00 
108586.5970       0.00 
108586.8410       0.00 
108587.0850       0.00 
108587.3290       0.00 
108587.5730       0.00 
108587.8170       0.00 
108588.0610       0.00 
108588.3050       0.00 
108588.5490       0.00 
108588.7930       0.00 
108589.0370       0.00 
108589.2810       0.00 
108589.5250       0.00 
108589.7690       0.00 
108590.0130       0.00 
108590.2570       0.00 
108590.5010       0.00 
108590.7450       0.00 
108590.9890       0.00 
108591.2330       0.00 
108591.4770       0.00 
108591.7210       0.00 
108591.9650       0.00 
108592.2090       0.00 
108592.4530       0.00 
108592.6970       0.00 
108592.9410       0.00 
108593.1850       0.00 
108593.4290       0.00 
108593.6730       0.00 
108593.9170       0.00 
108594.1610       0.00 
108594.4050       0.00 
108594.6490       0.00 
108594.8930       0.00 
108595.1370       0.00 
108595.3810       0.00 
108595.6250       0.00 
108595.8690       0.00 
108596.1130       0.00 
108596.3570       0.00 
108596.6010       0.00 
108596.8450       0.00 
108597.0890       0.00 
108597.3330       0.00 
108597.5770       0.00 
108597.8210       0.00 
108598.0650       0.00 
108598.3090       0.00 
108598.5530       0.00 
108598.7970       0.00 
108599.0410       0.00 
108599.2850       0.00 
108599.5290       0.00 
108599.7730       0.00 
108600.0170       0.00 
108600.2610       0.00 
108600.5050       0.00 
108600.7490       0.00 
108600.9930       0.00 
108601.2370       0.00 
108601.4810       0.00 
108601.7250       0.00 
108601.9690       0.00 
108602.2130       0.00 
108602.4570       0.00 
108602.7010       0.00 
108602.9450       0.00 
108603.1890       0.00 
108603.4330       0.00 
108603.6770       0.00 
108603.9210       0.00 
108604.1650       0.00 
108604.4090       0.00 
108604.6530       0.00 
108604.8970       0.00 
108605.1410       0.00 
108605.3850       0.00 
108605.6290       0.00 
108605.8730       0.00 
108606.1170       0.00 
108606.3610       0.00 
108606.6050       0.00 
108606.8490       0.00 
108607.0930       0.00 
108607.3370       0.00 
108607.5810       0.00 
108607.8250       0.00 
108608.0690       0.00 
108608.3130       0.00 
108608.5570       0.00 
108608.8010       0.00 
108609.0450       0.00 
108609.2890       0.00 
108609.5330       0.00 
108609.7770       0.00 
108610.0210       0.00 
108610.2650       0.00 
108610.5090       0.00 
108610.7530       0.00 
108610.9970       0.00 
108611.2410       0.00 
108611.4850       0.00 
108611.7290       0.00 
108611.9730       0.00 
108612.2170       0.00 
108612.4610       0.00 
108612.7050       0.00 
108612.9490       0.00 
108613.1930       0.00 
108613.4370       0.00 
108613.6810       0.00 
108613.9250       0.00 
108614.1690       0.00 
108614.4130       0.00 
108614.6570       0.00 
108614.9010       0.00 
108615.1450       0.00 
108615.3890       0.00 
108615.6330       0.00 
108615.8770       0.00 
108616.1210       0.00 
108616.3650       0.00 
108616.6090       0.00 
108616.8530       0.00 
108617.0970       0.00 
108617.3410       0.00 
108617.5850       0.00 
108617.8290       0.00 
108618.0730       0.00 
108618.3170       0.00 
108618.5610       0.00 
108618.8050       0.00 
108619.0490       0.00 
108619.2930       0.00 
108619.5370       0.00 
108619.7810       0.00 
108620.0250       0.00 
108620.2690       0.00 
108620.5130       0.00 
108620.7570       0.00 
108621.0010       0.00 
108621.2450       0.00 
108621.4890       0.00 
108621.7330       0.00 
108621.9770       0.00 
108622.2210       0.00 
108622.4650       0.00 
108622.7090       0.00 
108622.9530       0.00 
108623.1970       0.00 
108623.4410       0.00 
108623.6850       0.00 
108623.9290       0.00 
108624.1730       0.00 
108624.4170       0.00 
108624.6610       0.00 
108624.9050       0.00 
108625.1490       0.00 
108625.3930       0.00 
108625.6370       0.00 
108625.8810       0.00 
108626.1250       0.00 
108626.3690       0.00 
108626.6130       0.00 
108626.8570       0.00 
108627.1010       0.00 
108627.3450       0.00 
108627.5890       0.00 
108627.8330       0.00 
108628.0770       0.00 
108628.3210       0.00 
108628.5650       0.00 
108628.8090       0.00 
108629.0530       0.00 
108629.2970       0.00 
108629.5410       0.00 
108629.7850       0.00 
108630.0290       0.00 
108630.2730       0.00 
108630.5170       0.00 
108630.7610       0.00 
108631.0050       0.00 
108631.2490       0.00 
108631.4930       0.00 
108631.7370       0.00 
108631.9810       0.00 
108632.2250       0.00 
108632.4690       0.00 
108632.7130       0.00 
108632.9570       0.00 
108633.2010       0.00 
108633.4450       0.00 
108633.6890       0.00 
108633.9330       0.00 
108634.1770       0.00 
108634.4210       0.00 
108634.6650       0.00 
108634.9090       0.00 
108635.1530       0.00 
108635.3970       0.00 
108635.6410       0.00 
108635.8850       0.00 
108636.1290       0.00 
108636.3730       0.00 
108636.6170       0.00 
108636.8610       0.00 
108637.1050       0.00 
108637.3490       0.00 
108637.5930       0.00 
108637.8370       0.00 
108638.0810       0.00 
108638.3250       0.00 
108638.5690       0.00 
108638.8130       0.00 
108639.0570       0.00 
108639.3010       0.00 
108639.5450       0.00 
108639.7890       0.00 
108640.0330       0.00 
108640.2770       0.00 
108640.5210       0.00 
108640.7650       0.00 
108641.0090       0.00 
108641.2530       0.00 
108641.4970       0.00 
108641.7410       0.00 
108641.9850       0.00 
108642.2290       0.00 
108642.4730       0.00 
108642.7170       0.00 
108642.9610       0.00 
108643.2050       0.00 
108643.4490       0.00 
108643.6930       0.00 
108643.9370       0.00 
108644.1810       0.00 
108644.4250       0.00 
108644.6690       0.00 
108644.9130       0.00 
108645.1570       0.00 
108645.4010       0.00 
108645.6450       0.00 
108645.8890       0.00 
108646.1330       0.00 
108646.3770       0.00 
108646.6210       0.00 
108646.8650       0.00 
108647.1090       0.00 
108647.3530       0.00 
108647.5970       0.00 
108647.8410       0.00 
108648.0850       0.00 
108648.3290       0.00 
108648.5730       0.00 
108648.8170       0.00 
108649.0610       0.00 
108649.3050       0.00 
108649.5490       0.00 
108649.7930       0.00 
108650.0370       0.00 
108650.2810       0.00 
108650.5250       0.00 
108650.7690       0.00 
108651.0130       0.00 
108651.2570       0.00 
108651.5010       0.00 
108651.7450       0.00 
108651.9890       0.00 
108652.2330       0.00 
108652.4770       0.00 
108652.7210       0.00 
108652.9650       0.00 
108653.2090       0.00 
108653.4530       0.00 
108653.6970       0.00 
108653.9410       0.00 
108654.1850       0.00 
108654.4290       0.00 
108654.6730       0.00 
108654.9170       0.00 
108655.1610       0.00 
108655.4050       0.00 
108655.6490       0.00 
108655.8930       0.00 
108656.1370       0.00 
108656.3810       0.00 
108656.6250       0.00 
108656.8690       0.00 
108657.1130       0.00 
108657.3570       0.00 
108657.6010       0.00 
108657.8450       0.00 
108658.0890       0.00 
108658.3330       0.00 
108658.5770       0.00 
108658.8210       0.00 
108659.0650       0.00 
108659.3090       0.00 
108659.5530       0.00 
108659.7970       0.00 
108660.0410       0.00 
108660.2850       0.00 
108660.5290       0.00 
108660.7730       0.00 
108661.0170       0.00 
108661.2610       0.00 
108661.5050       0.00 
108661.7490       0.00 
108661.9930       0.00 
108662.2370       0.00 
108662.4810       0.00 
108662.7250       0.00 
108662.9690       0.00 
108663.2130       0.00 
108663.4570       0.00 
108663.7010       0.00 
108663.9450       0.00 
108664.1890       0.00 
108664.4330       0.00 
108664.6770       0.00 
108664.9210       0.00 
108665.1650       0.00 
108665.4090       0.00 
108665.6530       0.00 
108665.8970       0.00 
108666.1410       0.00 
108666.3850       0.00 
108666.6290       0.00 
108666.8730       0.00 
108667.1170       0.00 
108667.3610       0.00 
108667.6050       0.00 
108667.8490       0.00 
108668.0930       0.00 
108668.3370       0.00 
108668.5810       0.00 
108668.8250       0.00 
108669.0690       0.00 
108669.3130       0.00 
108669.5570       0.00 
108669.8010       0.00 
108670.0450       0.00 
108670.2890       0.00 
108670.5330       0.00 
108670.7770       0.00 
108671.0210       0.00 
108671.2650       0.00 
108671.5090       0.00 
108671.7530       0.00 
108671.9970       0.00 
108672.2410       0.00 
108672.4850       0.00 
108672.7290       0.00 
108672.9730       0.00 
108673.2170       0.00 
108673.4610       0.00 
108673.7050       0.00 
108673.9490       0.00 
108674.1930       0.00 
108674.4370       0.00 
108674.6810       0.00 
108674.9250       0.00 
108675.1690       0.00 
108675.4130       0.00 
108675.6570       0.00 
108675.9010       0.00 
108676.1450       0.00 
108676.3890       0.00 
108676.6330       0.00 
108676.8770       0.00 
108677.1210       0.00 
108677.3650       0.00 
108677.6090       0.00 
108677.8530       0.00 
108678.0970       0.00 
108678.3410       0.00 
108678.5850       0.00 
108678.8290       0.00 
108679.0730       0.00 
108679.3170       0.00 
108679.5610       0.00 
108679.8050       0.00 
108680.0490       0.00 
108680.2930       0.00 
108680.5370       0.00 
108680.7810       0.00 
108681.0250       0.00 
108681.2690       0.00 
108681.5130       0.00 
108681.7570       0.00 
108682.0010       0.00 
108682.2450       0.00 
108682.4890       0.00 
108682.7330       0.00 
108682.9770       0.00 
108683.2210       0.00 
108683.4650       0.00 
108683.7090       0.00 
108683.9530       0.00 
108684.1970       0.00 
108684.4410       0.00 
108684.6850       0.00 
108684.9290       0.00 
108685.1730       0.00 
108685.4170       0.00 
108685.6610       0.00 
108685.9050       0.00 
108686.1490       0.00 
108686.3930       0.00 
108686.6370       0.00 
108686.8810       0.01 
108687.1250       0.02 
108687.3690       0.03 
108687.6130       0.04 
108687.8570       0.04 
108688.1010       0.05 
108688.3450       0.05 
108688.5890       0.05 
108688.8330       0.04 
108689.0770       0.03 
108689.3210       0.02 
108689.5650       0.01 
108689.8090       0.01 
108690.0530       0.00 
108690.2970       0.00 
108690.5410       0.00 
108690.7850       0.00 
108691.0290       0.00 
108691.2730       0.00 
108691.5170       0.00 
108691.7610       0.00 
108692.0050       0.00 
108692.2490       0.00 
108692.4930       0.00 
108692.7370       0.00 
108692.9810       0.00 
108693.2250       0.00 
108693.4690       0.00 
108693.7130       0.00 
108693.9570       0.00 
108694.2010       0.00 
108694.4450       0.00 
108694.6890       0.00 
108694.9330       0.00 
108695.1770       0.00 
108695.4210       0.00 
108695.6650       0.00 
108695.9090       0.00 
108696.1530       0.00 
108696.3970       0.00 
108696.6410       0.00 
108696.8850       0.00 
108697.1290       0.00 
108697.3730       0.00 
108697.6170       0.00 
108697.8610       0.00 
108698.1050       0.00 
108698.3490       0.00 
108698.5930       0.00 
108698.8370       0.00 
108699.0810       0.00 
108699.3250       0.00 
108699.5690       0.00 
108699.8130       0.00 
108700.0570       0.00 
108700.3010       0.00 
108700.5450       0.00 
108700.7890       0.00 
108701.0330       0.00 
108701.2770       0.00 
108701.5210       0.00 
108701.7650       0.00 
108702.0090       0.00 
108702.2530       0.00 
108702.4970       0.00 
108702.7410       0.00 
108702.9850       0.00 
108703.2290       0.00 
108703.4730       0.00 
108703.7170       0.00 
108703.9610       0.00 
108704.2050       0.00 
108704.4490       0.00 
108704.6930       0.00 
108704.9370       0.00 
108705.1810       0.00 
108705.4250       0.00 
108705.6690       0.00 
108705.9130       0.00 
108706.1570       0.00 
108706.4010       0.00 
108706.6450       0.00 
108706.8890       0.00 
108707.1330       0.00 
108707.3770       0.00 
108707.6210       0.00 
108707.8650       0.00 
108708.1090       0.00 
108708.3530       0.00 
108708.5970       0.00 
108708.8410       0.00 
108709.0850       0.00 
108709.3290       0.00 
108709.5730       0.00 
108709.8170       0.00 
108710.0610       0.00 
108710.3050       0.00 
108710.5490       0.00 
108710.7930       0.00 
108711.0370       0.00 
108711.2810       0.00 
108711.5250       0.00 
108711.7690       0.00 
108712.0130       0.00 
108712.2570       0.00 
108712.5010       0.00 
108712.7450       0.00 
108712.9890       0.00 
108713.2330       0.00 
108713.4770       0.00 
108713.7210       0.00 
108713.9650       0.00 
108714.2090       0.00 
108714.4530       0.00 
108714.6970       0.00 
108714.9410       0.00 
108715.1850       0.00 
108715.4290       0.00 
108715.6730       0.00 
108715.9170       0.00 
108716.1610       0.00 
108716.4050       0.00 
108716.6490       0.00 
108716.8930       0.00 
108717.1370       0.00 
108717.3810       0.00 
108717.6250       0.00 
108717.8690       0.00 
108718.1130       0.00 
108718.3570       0.00 
108718.6010       0.00 
108718.8450       0.00 
108719.0890       0.00 
108719.3330       0.00 
108719.5770       0.00 
108719.8210       0.00 
108720.0650       0.00 
108720.3090       0.00 
108720.5530       0.00 
108720.7970       0.00 
108721.0410       0.00 
108721.2850       0.00 
108721.5290       0.00 
108721.7730       0.00 
108722.0170       0.00 
108722.2610       0.00 
108722.5050       0.00 
108722.7490       0.00 
108722.9930       0.00 
108723.2370       0.00 
108723.4810       0.00 
108723.7250       0.00 
108723.9690       0.00 
108724.2130       0.00 
108724.4570       0.00 
108724.7010       0.00 
108724.9450       0.00 
108725.1890       0.00 
108725.4330       0.00 
108725.6770       0.00 
108725.9210       0.00 
108726.1650       0.00 
108726.4090       0.00 
108726.6530       0.00 
108726.8970       0.00 
108727.1410       0.00 
108727.3850       0.00 
108727.6290       0.00 
108727.8730       0.00 
108728.1170       0.00 
108728.3610       0.00 
108728.6050       0.00 
108728.8490       0.00 
108729.0930       0.00 
108729.3370       0.00 
108729.5810       0.00 
108729.8250       0.00 
108730.0690       0.00 
108730.3130       0.00 
108730.5570       0.00 
108730.8010       0.00 
108731.0450       0.00 
108731.2890       0.00 
108731.5330       0.00 
108731.7770       0.00 
108732.0210       0.00 
108732.2650       0.00 
108732.5090       0.00 
108732.7530       0.00 
108732.9970       0.00 
108733.2410       0.00 
108733.4850       0.00 
108733.7290       0.00 
108733.9730       0.00 
108734.2170       0.00 
108734.4610       0.00 
108734.7050       0.00 
108734.9490       0.00 
108735.1930       0.00 
108735.4370       0.00 
108735.6810       0.00 
108735.9250       0.00 
108736.1690       0.00 
108736.4130       0.00 
108736.6570       0.00 
108736.9010       0.00 
108737.1450       0.00 
108737.3890       0.00 
108737.6330       0.00 
108737.8770       0.00 
108738.1210       0.00 
108738.3650       0.00 
108738.6090       0.00 
108738.8530       0.00 
108739.0970       0.00 
108739.3410       0.00 
108739.5850       0.00 
108739.8290       0.00 
108740.0730       0.00 
108740.3170       0.00 
108740.5610       0.00 
108740.8050       0.00 
108741.0490       0.00 
108741.2930       0.00 
108741.5370       0.00 
108741.7810       0.00 
108742.0250       0.00 
108742.2690       0.00 
108742.5130       0.00 
108742.7570       0.00 
108743.0010       0.00 
108743.2450       0.00 
108743.4890       0.00 
108743.7330       0.00 
108743.9770       0.00 
108744.2210       0.00 
108744.4650       0.00 
108744.7090       0.00 
108744.9530       0.00 
108745.1970       0.00 
108745.4410       0.00 
108745.6850       0.00 
108745.9290       0.00 
108746.1730       0.00 
108746.4170       0.00 
108746.6610       0.00 
108746.9050       0.00 
108747.1490       0.00 
108747.3930       0.00 
108747.6370       0.00 
108747.8810       0.00 
108748.1250       0.00 
108748.3690       0.00 
108748.6130       0.00 
108748.8570       0.00 
108749.1010       0.00 
108749.3450       0.00 
108749.5890       0.00 
108749.8330       0.00 
108750.0770       0.00 
108750.3210       0.00 
108750.5650       0.00 
108750.8090       0.00 
108751.0530       0.00 
108751.2970       0.00 
108751.5410       0.00 
108751.7850       0.00 
108752.0290       0.00 
108752.2730       0.00 
108752.5170       0.00 
108752.7610       0.00 
108753.0050       0.00 
108753.2490       0.00 
108753.4930       0.00 
108753.7370       0.00 
108753.9810       0.00 
108754.2250       0.00 
108754.4690       0.00 
108754.7130       0.00 
108754.9570       0.00 
108755.2010       0.00 
108755.4450       0.00 
108755.6890       0.00 
108755.9330       0.00 
108756.1770       0.00 
108756.4210       0.00 
108756.6650       0.00 
108756.9090       0.00 
108757.1530       0.00 
108757.3970       0.00 
108757.6410       0.00 
108757.8850       0.00 
108758.1290       0.00 
108758.3730       0.00 
108758.6170       0.00 
108758.8610       0.00 
108759.1050       0.00 
108759.3490       0.00 
108759.5930       0.00 
108759.8370       0.00 
108760.0810       0.00 
108760.3250       0.00 
108760.5690       0.00 
108760.8130       0.00 
108761.0570       0.00 
108761.3010       0.00 
108761.5450       0.00 
108761.7890       0.00 
108762.0330       0.00 
108762.2770       0.00 
108762.5210       0.00 
108762.7650       0.00 
108763.0090       0.00 
108763.2530       0.00 
108763.4970       0.00 
108763.7410       0.00 
108763.9850       0.00 
108764.2290       0.00 
108764.4730       0.00 
108764.7170       0.00 
108764.9610       0.00 
108765.2050       0.00 
108765.4490       0.00 
108765.6930       0.00 
108765.9370       0.00 
108766.1810       0.00 
108766.4250       0.00 
108766.6690       0.00 
108766.9130       0.00 
108767.1570       0.00 
108767.4010       0.00 
108767.6450       0.00 
108767.8890       0.00 
108768.1330       0.00 
108768.3770       0.00 
108768.6210       0.00 
108768.8650       0.00 
108769.1090       0.00 
108769.3530       0.00 
108769.5970       0.00 
108769.8410       0.00 
108770.0850       0.00 
108770.3290       0.00 
108770.5730       0.00 
108770.8170       0.00 
108771.0610       0.00 
108771.3050       0.00 
108771.5490       0.00 
108771.7930       0.00 
108772.0370       0.00 
108772.2810       0.00 
108772.5250       0.00 
108772.7690       0.00 
108773.0130       0.00 
108773.2570       0.00 
108773.5010       0.00 
108773.7450       0.00 
108773.9890       0.00 
108774.2330       0.00 
108774.4770       0.00 
108774.7210       0.00 
108774.9650       0.00 
108775.2090       0.00 
108775.4530       0.00 
108775.6970       0.00 
108775.9410       0.00 
108776.1850       0.00 
108776.4290       0.00 
108776.6730       0.00 
108776.9170       0.00 
108777.1610       0.00 
108777.4050       0.00 
108777.6490       0.00 
108777.8930       0.00 
108778.1370       0.00 
108778.3810       0.00 
108778.6250       0.00 
108778.8690       0.00 
108779.1130       0.00 
108779.3570       0.00 
108779.6010       0.00 
108779.8450       0.00 
108780.0890       0.00 
108780.3330       0.00 
108780.5770       0.00 
108780.8210       0.00 
108781.0650       0.00 
108781.3090       0.00 
108781.5530       0.00 
108781.7970       0.00 
108782.0410       0.00 
108782.2850       0.00 
108782.5290       0.00 
108782.7730       0.00 
108783.0170       0.00 
108783.2610       0.00 
108783.5050       0.00 
108783.7490       0.00 
108783.9930       0.00 
108784.2370       0.00 
108784.4810       0.00 
108784.7250       0.00 
108784.9690       0.00 
108785.2130       0.00 
108785.4570       0.00 
108785.7010       0.00 
108785.9450       0.00 
108786.1890       0.00 
108786.4330       0.00 
108786.6770       0.00 
108786.9210       0.00 
108787.1650       0.00 
108787.4090       0.00 
108787.6530       0.00 
108787.8970       0.00 
108788.1410       0.00 
108788.3850       0.00 
108788.6290       0.00 
108788.8730       0.00 
108789.1170       0.00 
108789.3610       0.00 
108789.6050       0.00 
108789.8490       0.00 
108790.0930       0.00 
108790.3370       0.00 
108790.5810       0.00 
108790.8250       0.00 
108791.0690       0.00 
108791.3130       0.00 
108791.5570       0.00 
108791.8010       0.00 
108792.0450       0.00 
108792.2890       0.00 
108792.5330       0.00 
108792.7770       0.00 
108793.0210       0.00 
108793.2650       0.00 
108793.5090       0.00 
108793.7530       0.00 
108793.9970       0.00 
108794.2410       0.00 
108794.4850       0.00 
108794.7290       0.00 
108794.9730       0.00 
108795.2170       0.00 
108795.4610       0.00 
108795.7050       0.00 
108795.9490       0.00 
108796.1930       0.00 
108796.4370       0.00 
108796.6810       0.00 
108796.9250       0.00 
108797.1690       0.00 
108797.4130       0.00 
108797.6570       0.00 
108797.9010       0.00 
108798.1450       0.00 
108798.3890       0.00 
108798.6330       0.00 
108798.8770       0.00 
108799.1210       0.00 
108799.3650       0.00 
108799.6090       0.00 
108799.8530       0.00 
108800.0970       0.00 
108800.3410       0.00 
108800.5850       0.00 
108800.8290       0.00 
108801.0730       0.00 
108801.3170       0.00 
108801.5610       0.00 
108801.8050       0.00 
108802.0490       0.00 
108802.2930       0.00 
108802.5370       0.00 
108802.7810       0.00 
108803.0250       0.00 
108803.2690       0.00 
108803.5130       0.00 
108803.7570       0.00 
108804.0010       0.00 
108804.2450       0.00 
108804.4890       0.00 
108804.7330       0.00 
108804.9770       0.00 
108805.2210       0.00 
108805.4650       0.00 
108805.7090       0.00 
108805.9530       0.00 
108806.1970       0.00 
108806.4410       0.00 
108806.6850       0.00 
108806.9290       0.00 
108807.1730       0.00 
108807.4170       0.00 
108807.6610       0.00 
108807.9050       0.00 
108808.1490       0.00 
108808.3930       0.00 
108808.6370       0.00 
108808.8810       0.00 
108809.1250       0.00 
108809.3690       0.00 
108809.6130       0.00 
108809.8570       0.00 
108810.1010       0.00 
108810.3450       0.00 
108810.5890       0.00 
108810.8330       0.00 
108811.0770       0.00 
108811.3210       0.00 
108811.5650       0.00 
108811.8090       0.00 
108812.0530       0.00 
108812.2970       0.00 
108812.5410       0.00 
108812.7850       0.00 
108813.0290       0.00 
108813.2730       0.00 
108813.5170       0.00 
108813.7610       0.00 
108814.0050       0.00 
108814.2490       0.00 
108814.4930       0.00 
108814.7370       0.00 
108814.9810       0.00 
108815.2250       0.00 
108815.4690       0.00 
108815.7130       0.00 
108815.9570       0.00 
108816.2010       0.00 
108816.4450       0.00 
108816.6890       0.00 
108816.9330       0.00 
108817.1770       0.00 
108817.4210       0.00 
108817.6650       0.00 
108817.9090       0.00 
108818.1530       0.00 
108818.3970       0.00 
108818.6410       0.00 
108818.8850       0.00 
108819.1290       0.00 
108819.3730       0.00 
108819.6170       0.00 
108819.8610       0.00 
108820.1050       0.00 
108820.3490       0.00 
108820.5930       0.00 
108820.8370       0.00 
108821.0810       0.00 
108821.3250       0.00 
108821.5690       0.00 
108821.8130       0.00 
108822.0570       0.00 
108822.3010       0.00 
108822.5450       0.00 
108822.7890       0.00 
108823.0330       0.00 
108823.2770       0.00 
108823.5210       0.00 
108823.7650       0.00 
108824.0090       0.00 
108824.2530       0.00 
108824.4970       0.00 
108824.7410       0.00 
108824.9850       0.00 
108825.2290       0.00 
108825.4730       0.00 
108825.7170       0.00 
108825.9610       0.00 
108826.2050       0.00 
108826.4490       0.00 
108826.6930       0.00 
108826.9370       0.00 
108827.1810       0.00 
108827.4250       0.00 
108827.6690       0.00 
108827.9130       0.00 
108828.1570       0.00 
108828.4010       0.00 
108828.6450       0.00 
108828.8890       0.00 
108829.1330       0.00 
108829.3770       0.00 
108829.6210       0.00 
108829.8650       0.00 
108830.1090       0.00 
108830.3530       0.00 
108830.5970       0.00 
108830.8410       0.00 
108831.0850       0.00 
108831.3290       0.00 
108831.5730       0.00 
108831.8170       0.00 
108832.0610       0.00 
108832.3050       0.00 
108832.5490       0.00 
108832.7930       0.00 
108833.0370       0.00 
108833.2810       0.00 
108833.5250       0.00 
108833.7690       0.00 
108834.0130       0.00 
108834.2570       0.00 
108834.5010       0.00 
108834.7450       0.00 
108834.9890       0.00 
108835.2330       0.00 
108835.4770       0.00 
108835.7210       0.00 
108835.9650       0.00 
108836.2090       0.00 
108836.4530       0.00 
108836.6970       0.00 
108836.9410       0.00 
108837.1850       0.00 
108837.4290       0.00 
108837.6730       0.00 
108837.9170       0.00 
108838.1610       0.00 
108838.4050       0.00 
108838.6490       0.00 
108838.8930       0.00 
108839.1370       0.00 
108839.3810       0.00 
108839.6250       0.00 
108839.8690       0.00 
108840.1130       0.00 
108840.3570       0.00 
108840.6010       0.00 
108840.8450       0.00 
108841.0890       0.00 
108841.3330       0.00 
108841.5770       0.00 
108841.8210       0.00 
108842.0650       0.00 
108842.3090       0.00 
108842.5530       0.00 
108842.7970       0.00 
108843.0410       0.00 
108843.2850       0.00 
108843.5290       0.00 
108843.7730       0.00 
108844.0170       0.00 
108844.2610       0.00 
108844.5050       0.00 
108844.7490       0.00 
108844.9930       0.00 
108845.2370       0.00 
108845.4810       0.00 
108845.7250       0.00 
108845.9690       0.00 
108846.2130       0.00 
108846.4570       0.00 
108846.7010       0.00 
108846.9450       0.00 
108847.1890       0.00 
108847.4330       0.00 
108847.6770       0.00 
108847.9210       0.00 
108848.1650       0.00 
108848.4090       0.00 
108848.6530       0.00 
108848.8970       0.00 
108849.1410       0.00 
108849.3850       0.00 
108849.6290       0.00 
108849.8730       0.00 
108850.1170       0.00 
108850.3610       0.00 
108850.6050       0.00 
108850.8490       0.00 
108851.0930       0.00 
108851.3370       0.00 
108851.5810       0.00 
108851.8250       0.00 
108852.0690       0.00 
108852.3130       0.00 
108852.5570       0.00 
108852.8010       0.00 
108853.0450       0.00 
108853.2890       0.00 
108853.5330       0.00 
108853.7770       0.00 
108854.0210       0.00 
108854.2650       0.00 
108854.5090       0.00 
108854.7530       0.00 
108854.9970       0.00 
108855.2410       0.00 
108855.4850       0.00 
108855.7290       0.00 
108855.9730       0.00 
108856.2170       0.00 
108856.4610       0.00 
108856.7050       0.00 
108856.9490       0.00 
108857.1930       0.00 
108857.4370       0.00 
108857.6810       0.00 
108857.9250       0.00 
108858.1690       0.00 
108858.4130       0.00 
108858.6570       0.00 
108858.9010       0.00 
108859.1450       0.00 
108859.3890       0.00 
108859.6330       0.00 
108859.8770       0.00 
108860.1210       0.00 
108860.3650       0.00 
108860.6090       0.00 
108860.8530       0.00 
108861.0970       0.00 
108861.3410       0.00 
108861.5850       0.00 
108861.8290       0.00 
108862.0730       0.00 
108862.3170       0.00 
108862.5610       0.00 
108862.8050       0.00 
108863.0490       0.00 
108863.2930       0.00 
108863.5370       0.00 
108863.7810       0.00 
108864.0250       0.00 
108864.2690       0.00 
108864.5130       0.00 
108864.7570       0.00 
108865.0010       0.00 
108865.2450       0.00 
108865.4890       0.00 
108865.7330       0.00 
108865.9770       0.00 
108866.2210       0.00 
108866.4650       0.00 
108866.7090       0.00 
108866.9530       0.00 
108867.1970       0.00 
108867.4410       0.00 
108867.6850       0.00 
108867.9290       0.00 
108868.1730       0.00 
108868.4170       0.00 
108868.6610       0.00 
108868.9050       0.00 
108869.1490       0.00 
108869.3930       0.00 
108869.6370       0.00 
108869.8810       0.00 
108870.1250       0.00 
108870.3690       0.00 
108870.6130       0.00 
108870.8570       0.00 
108871.1010       0.00 
108871.3450       0.00 
108871.5890       0.00 
108871.8330       0.00 
108872.0770       0.00 
108872.3210       0.00 
108872.5650       0.00 
108872.8090       0.00 
108873.0530       0.00 
108873.2970       0.00 
108873.5410       0.00 
108873.7850       0.00 
108874.0290       0.00 
108874.2730       0.00 
108874.5170       0.00 
108874.7610       0.00 
108875.0050       0.00 
108875.2490       0.00 
108875.4930       0.00 
108875.7370       0.00 
108875.9810       0.00 
108876.2250       0.00 
108876.4690       0.00 
108876.7130       0.00 
108876.9570       0.00 
108877.2010       0.00 
108877.4450       0.00 
108877.6890       0.00 
108877.9330       0.00 
108878.1770       0.00 
108878.4210       0.00 
108878.6650       0.00 
108878.9090       0.00 
108879.1530       0.00 
108879.3970       0.00 
108879.6410       0.00 
108879.8850       0.00 
108880.1290       0.00 
108880.3730       0.00 
108880.6170       0.00 
108880.8610       0.00 
108881.1050       0.00 
108881.3490       0.00 
108881.5930       0.00 
108881.8370       0.00 
108882.0810       0.00 
108882.3250       0.00 
108882.5690       0.00 
108882.8130       0.00 
108883.0570       0.00 
108883.3010       0.00 
108883.5450       0.00 
108883.7890       0.00 
108884.0330       0.00 
108884.2770       0.00 
108884.5210       0.00 
108884.7650       0.00 
108885.0090       0.00 
108885.2530       0.00 
108885.4970       0.00 
108885.7410       0.00 
108885.9850       0.00 
108886.2290       0.00 
108886.4730       0.00 
108886.7170       0.00 
108886.9610       0.00 
108887.2050       0.00 
108887.4490       0.00 
108887.6930       0.00 
108887.9370       0.00 
108888.1810       0.00 
108888.4250       0.00 
108888.6690       0.00 
108888.9130       0.00 
108889.1570       0.00 
108889.4010       0.00 
108889.6450       0.00 
108889.8890       0.00 
108890.1330       0.00 
108890.3770       0.01 
108890.6210       0.03 
108890.8650       0.10 
108891.1090       0.38 
108891.3530       1.04 
108891.5970       2.56 
108891.8410       4.61 
108892.0850       9.28 
108892.3290      15.73 
108892.5730      25.97 
108892.8170      34.74 
108893.0610      41.49 
108893.3050      45.79 
108893.5490      47.88 
108893.7930      48.44 
108894.0370      47.32 
108894.2810      45.35 
108894.5250      40.72 
108894.7690      33.66 
108895.0130      25.59 
108895.2570      15.46 
108895.5010       8.51 
108895.7450       4.15 
108895.9890       1.80 
108896.2330       0.76 
108896.4770       0.23 
108896.7210       0.07 
108896.9650       0.03 
108897.2090       0.01 
108897.4530       0.00 
108897.6970       0.00 
108897.9410       0.00 
108898.1850       0.00 
108898.4290       0.00 
108898.6730       0.00 
108898.9170       0.00 
108899.1610       0.00 
108899.4050       0.00 
108899.6490       0.00 
108899.8930       0.00 
108900.1370       0.00 
108900.3810       0.00 
108900.6250       0.00 
108900.8690       0.00 
108901.1130       0.00 
108901.3570       0.00 
108901.6010       0.00 
108901.8450       0.00 
108902.0890       0.00 
108902.3330       0.00 
108902.5770       0.00 
108902.8210       0.00 
108903.0650       0.00 
108903.3090       0.00 
108903.5530       0.00 
108903.7970       0.00 
108904.0410       0.00 
108904.2850       0.00 
108904.5290       0.00 
108904.7730       0.00 
108905.0170       0.00 
108905.2610       0.00 
108905.5050       0.00 
108905.7490       0.00 
108905.9930       0.00 
108906.2370       0.00 
108906.4810       0.00 
108906.7250       0.00 
108906.9690       0.00 
108907.2130       0.00 
108907.4570       0.00 
108907.7010       0.00 
108907.9450       0.00 
108908.1890       0.00 
108908.4330       0.00 
108908.6770       0.00 
108908.9210       0.00 
108909.1650       0.00 
108909.4090       0.00 
108909.6530       0.00 
108909.8970       0.00 
108910.1410       0.00 
108910.3850       0.00 
108910.6290       0.00 
108910.8730       0.00 
108911.1170       0.00 
108911.3610       0.00 
108911.6050       0.00 
108911.8490       0.00 
108912.0930       0.00 
108912.3370       0.00 
108912.5810       0.00 
108912.8250       0.00 
108913.0690       0.00 
108913.3130       0.00 
108913.5570       0.00 
108913.8010       0.00 
108914.0450       0.00 
108914.2890       0.00 
108914.5330       0.00 
108914.7770       0.00 
108915.0210       0.00 
108915.2650       0.00 
108915.5090       0.00 
108915.7530       0.00 
108915.9970       0.00 
108916.2410       0.00 
108916.4850       0.00 
108916.7290       0.00 
108916.9730       0.00 
108917.2170       0.00 
108917.4610       0.00 
108917.7050       0.00 
108917.9490       0.00 
108918.1930       0.00 
108918.4370       0.00 
108918.6810       0.00 
108918.9250       0.00 
108919.1690       0.00 
108919.4130       0.00 
108919.6570       0.00 
108919.9010       0.00 
108920.1450       0.00 
108920.3890       0.00 
108920.6330       0.00 
108920.8770       0.00 
108921.1210       0.00 
108921.3650       0.00 
108921.6090       0.00 
108921.8530       0.00 
108922.0970       0.00 
108922.3410       0.00 
108922.5850       0.00 
108922.8290       0.00 
108923.0730       0.00 
108923.3170       0.00 
108923.5610       0.00 
108923.8050       0.00 
108924.0490       0.00 
108924.2930       0.00 
108924.5370       0.00 
108924.7810       0.00 
108925.0250       0.00 
108925.2690       0.00 
108925.5130       0.00 
108925.7570       0.00 
108926.0010       0.00 
108926.2450       0.00 
108926.4890       0.00 
108926.7330       0.00 
108926.9770       0.00 
108927.2210       0.00 
108927.4650       0.00 
108927.7090       0.00 
108927.9530       0.00 
108928.1970       0.00 
108928.4410       0.00 
108928.6850       0.00 
108928.9290       0.00 
108929.1730       0.00 
108929.4170       0.00 
108929.6610       0.00 
108929.9050       0.00 
108930.1490       0.00 
108930.3930       0.00 
108930.6370       0.00 
108930.8810       0.00 
108931.1250       0.00 
108931.3690       0.00 
108931.6130       0.00 
108931.8570       0.00 
108932.1010       0.00 
108932.3450       0.00 
108932.5890       0.00 
108932.8330       0.00 
108933.0770       0.00 
108933.3210       0.00 
108933.5650       0.00 
108933.8090       0.00 
108934.0530       0.00 
108934.2970       0.00 
108934.5410       0.00 
108934.7850       0.00 
108935.0290       0.00 
108935.2730       0.00 
108935.5170       0.00 
108935.7610       0.00 
108936.0050       0.00 
108936.2490       0.00 
108936.4930       0.00 
108936.7370       0.00 
108936.9810       0.00 
108937.2250       0.00 
108937.4690       0.00 
108937.7130       0.00 
108937.9570       0.00 
108938.2010       0.00 
108938.4450       0.00 
108938.6890       0.00 
108938.9330       0.00 
108939.1770       0.00 
108939.4210       0.00 
108939.6650       0.00 
108939.9090       0.00 
108940.1530       0.00 
108940.3970       0.00 
108940.6410       0.00 
108940.8850       0.00 
108941.1290       0.00 
108941.3730       0.00 
108941.6170       0.00 
108941.8610       0.00 
108942.1050       0.00 
108942.3490       0.00 
108942.5930       0.00 
108942.8370       0.00 
108943.0810       0.00 
108943.3250       0.00 
108943.5690       0.00 
108943.8130       0.00 
108944.0570       0.00 
108944.3010       0.00 
108944.5450       0.00 
108944.7890       0.00 
108945.0330       0.00 
108945.2770       0.00 
108945.5210       0.00 
108945.7650       0.00 
108946.0090       0.00 
108946.2530       0.00 
108946.4970       0.00 
108946.7410       0.00 
108946.9850       0.00 
108947.2290       0.00 
108947.4730       0.00 
108947.7170       0.00 
108947.9610       0.00 
108948.2050       0.00 
108948.4490       0.00 
108948.6930       0.00 
108948.9370       0.00 
108949.1810       0.00 
108949.4250       0.00 
108949.6690       0.00 
108949.9130       0.00 
108950.1570       0.00 
108950.4010       0.00 
108950.6450       0.00 
108950.8890       0.00 
108951.1330       0.00 
108951.3770       0.00 
108951.6210       0.00 
108951.8650       0.00 
108952.1090       0.00 
108952.3530       0.00 
108952.5970       0.00 
108952.8410       0.00 
108953.0850       0.00 
108953.3290       0.00 
108953.5730       0.00 
108953.8170       0.00 
108954.0610       0.00 
108954.3050       0.00 
108954.5490       0.00 
108954.7930       0.00 
108955.0370       0.00 
108955.2810       0.00 
108955.5250       0.00 
108955.7690       0.00 
108956.0130       0.00 
108956.2570       0.00 
108956.5010       0.00 
108956.7450       0.00 
108956.9890       0.00 
108957.2330       0.00 
108957.4770       0.00 
108957.7210       0.00 
108957.9650       0.00 
108958.2090       0.00 
108958.4530       0.00 
108958.6970       0.00 
108958.9410       0.00 
108959.1850       0.00 
108959.4290       0.00 
108959.6730       0.00 
108959.9170       0.00 
108960.1610       0.00 
108960.4050       0.00 
108960.6490       0.00 
108960.8930       0.00 
108961.1370       0.00 
108961.3810       0.00 
108961.6250       0.00 
108961.8690       0.00 
108962.1130       0.00 
108962.3570       0.00 
108962.6010       0.00 
108962.8450       0.00 
108963.0890       0.00 
108963.3330       0.00 
108963.5770       0.00 
108963.8210       0.00 
108964.0650       0.00 
108964.3090       0.00 
108964.5530       0.00 
108964.7970       0.00 
108965.0410       0.00 
108965.2850       0.00 
108965.5290       0.00 
108965.7730       0.00 
108966.0170       0.00 
108966.2610       0.00 
108966.5050       0.00 
108966.7490       0.00 
108966.9930       0.00 
108967.2370       0.00 
108967.4810       0.00 
108967.7250       0.00 
108967.9690       0.00 
108968.2130       0.00 
108968.4570       0.00 
108968.7010       0.00 
108968.9450       0.00 
108969.1890       0.00 
108969.4330       0.00 
108969.6770       0.00 
108969.9210       0.00 
108970.1650       0.00 
108970.4090       0.00 
108970.6530       0.00 
108970.8970       0.00 
108971.1410       0.00 
108971.3850       0.00 
108971.6290       0.00 
108971.8730       0.00 
108972.1170       0.00 
108972.3610       0.00 
108972.6050       0.00 
108972.8490       0.00 
108973.0930       0.00 
108973.3370       0.00 
108973.5810       0.00 
108973.8250       0.00 
108974.0690       0.00 
108974.3130       0.00 
108974.5570       0.00 
108974.8010       0.00 
108975.0450       0.00 
108975.2890       0.00 
108975.5330       0.00 
108975.7770       0.00 
108976.0210       0.00 
108976.2650       0.00 
108976.5090       0.00 
108976.7530       0.00 
108976.9970       0.00 
108977.2410       0.00 
108977.4850       0.00 
108977.7290       0.00 
108977.9730       0.00 
108978.2170       0.00 
108978.4610       0.00 
108978.7050       0.00 
108978.9490       0.00 
108979.1930       0.00 
108979.4370       0.00 
108979.6810       0.00 
108979.9250       0.00 
108980.1690       0.00 
108980.4130       0.00 
108980.6570       0.00 
108980.9010       0.00 
108981.1450       0.00 
108981.3890       0.00 
108981.6330       0.00 
108981.8770       0.00 
108982.1210       0.00 
108982.3650       0.00 
108982.6090       0.00 
108982.8530       0.00 
108983.0970       0.00 
108983.3410       0.00 
108983.5850       0.00 
108983.8290       0.00 
108984.0730       0.00 
108984.3170       0.00 
108984.5610       0.00 
108984.8050       0.00 
108985.0490       0.00 
108985.2930       0.00 
108985.5370       0.00 
108985.7810       0.00 
108986.0250       0.00 
108986.2690       0.00 
108986.5130       0.00 
108986.7570       0.00 
108987.0010       0.00 
108987.2450       0.00 
108987.4890       0.00 
108987.7330       0.00 
108987.9770       0.00 
108988.2210       0.00 
108988.4650       0.00 
108988.7090       0.00 
108988.9530       0.00 
108989.1970       0.00 
108989.4410       0.00 
108989.6850       0.00 
108989.9290       0.00 
108990.1730       0.00 
108990.4170       0.00 
108990.6610       0.00 
108990.9050       0.00 
108991.1490       0.00 
108991.3930       0.00 
108991.6370       0.00 
108991.8810       0.00 
108992.1250       0.00 
108992.3690       0.00 
108992.6130       0.00 
108992.8570       0.00 
108993.1010       0.00 
108993.3450       0.00 
108993.5890       0.00 
108993.8330       0.00 
108994.0770       0.00 
108994.3210       0.00 
108994.5650       0.00 
108994.8090       0.00 
108995.0530       0.00 
108995.2970       0.00 
108995.5410       0.00 
108995.7850       0.00 
108996.0290       0.00 
108996.2730       0.00 
108996.5170       0.00 
108996.7610       0.00 
108997.0050       0.00 
108997.2490       0.00 
108997.4930       0.00 
108997.7370       0.00 
108997.9810       0.00 
108998.2250       0.00 
108998.4690       0.00 
108998.7130       0.00 
108998.9570       0.00 
108999.2010       0.00 
108999.4450       0.00 
108999.6890       0.00 
108999.9330       0.00 
109000.1770       0.00 
109000.4210       0.00 
109000.6650       0.00 
109000.9090       0.00 
109001.1530       0.00 
109001.3970       0.00 
109001.6410       0.00 
109001.8850       0.00 
109002.1290       0.00 
109002.3730       0.00 
109002.6170       0.00 
109002.8610       0.00 
109003.1050       0.00 
109003.3490       0.00 
109003.5930       0.00 
109003.8370       0.00 
109004.0810       0.00 
109004.3250       0.00 
109004.5690       0.00 
109004.8130       0.00 
109005.0570       0.00 
109005.3010       0.00 
109005.5450       0.00 
109005.7890       0.00 
109006.0330       0.00 
109006.2770       0.00 
109006.5210       0.00 
109006.7650       0.00 
109007.0090       0.00 
109007.2530       0.00 
109007.4970       0.00 
109007.7410       0.00 
109007.9850       0.00 
109008.2290       0.00 
109008.4730       0.00 
109008.7170       0.00 
109008.9610       0.00 
109009.2050       0.00 
109009.4490       0.00 
109009.6930       0.00 
109009.9370       0.00 
109010.1810       0.00 
109010.4250       0.00 
109010.6690       0.00 
109010.9130       0.00 
109011.1570       0.00 
109011.4010       0.00 
109011.6450       0.00 
109011.8890       0.00 
109012.1330       0.00 
109012.3770       0.00 
109012.6210       0.00 
109012.8650       0.00 
109013.1090       0.00 
109013.3530       0.00 
109013.5970       0.00 
109013.8410       0.00 
109014.0850       0.00 
109014.3290       0.00 
109014.5730       0.00 
109014.8170       0.00 
109015.0610       0.00 
109015.3050       0.00 
109015.5490       0.00 
109015.7930       0.00 
109016.0370       0.00 
109016.2810       0.00 
109016.5250       0.00 
109016.7690       0.00 
109017.0130       0.00 
109017.2570       0.00 
109017.5010       0.00 
109017.7450       0.00 
109017.9890       0.00 
109018.2330       0.00 
109018.4770       0.00 
109018.7210       0.00 
109018.9650       0.00 
109019.2090       0.00 
109019.4530       0.00 
109019.6970       0.00 
109019.9410       0.00 
109020.1850       0.00 
109020.4290       0.00 
109020.6730       0.00 
109020.9170       0.00 
109021.1610       0.00 
109021.4050       0.00 
109021.6490       0.00 
109021.8930       0.00 
109022.1370       0.00 
109022.3810       0.00 
109022.6250       0.00 
109022.8690       0.00 
109023.1130       0.00 
109023.3570       0.00 
109023.6010       0.00 
109023.8450       0.00 
109024.0890       0.00 
109024.3330       0.00 
109024.5770       0.00 
109024.8210       0.00 
109025.0650       0.00 
109025.3090       0.00 
109025.5530       0.00 
109025.7970       0.00 
109026.0410       0.00 
109026.2850       0.00 
109026.5290       0.00 
109026.7730       0.00 
109027.0170       0.00 
109027.2610       0.00 
109027.5050       0.00 
109027.7490       0.00 
109027.9930       0.00 
109028.2370       0.00 
109028.4810       0.00 
109028.7250       0.00 
109028.9690       0.00 
109029.2130       0.00 
109029.4570       0.00 
109029.7010       0.00 
109029.9450       0.00 
109030.1890       0.00 
109030.4330       0.00 
109030.6770       0.00 
109030.9210       0.00 
109031.1650       0.00 
109031.4090       0.00 
109031.6530       0.00 
109031.8970       0.00 
109032.1410       0.00 
109032.3850       0.00 
109032.6290       0.00 
109032.8730       0.00 
109033.1170       0.00 
109033.3610       0.00 
109033.6050       0.00 
109033.8490       0.00 
109034.0930       0.00 
109034.3370       0.00 
109034.5810       0.00 
109034.8250       0.00 
109035.0690       0.00 
109035.3130       0.00 
109035.5570       0.00 
109035.8010       0.00 
109036.0450       0.00 
109036.2890       0.00 
109036.5330       0.00 
109036.7770       0.00 
109037.0210       0.00 
109037.2650       0.00 
109037.5090       0.00 
109037.7530       0.00 
109037.9970       0.00 
109038.2410       0.00 
109038.4850       0.00 
109038.7290       0.00 
109038.9730       0.00 
109039.2170       0.00 
109039.4610       0.00 
109039.7050       0.00 
109039.9490       0.00 
109040.1930       0.00 
109040.4370       0.00 
109040.6810       0.00 
109040.9250       0.00 
109041.1690       0.00 
109041.4130       0.00 
109041.6570       0.00 
109041.9010       0.00 
109042.1450       0.00 
109042.3890       0.00 
109042.6330       0.00 
109042.8770       0.00 
109043.1210       0.00 
109043.3650       0.00 
109043.6090       0.00 
109043.8530       0.00 
109044.0970       0.00 
109044.3410       0.00 
109044.5850       0.00 
109044.8290       0.00 
109045.0730       0.00 
109045.3170       0.00 
109045.5610       0.00 
109045.8050       0.00 
109046.0490       0.00 
109046.2930       0.00 
109046.5370       0.00 
109046.7810       0.00 
109047.0250       0.00 
109047.2690       0.00 
109047.5130       0.00 
109047.7570       0.00 
109048.0010       0.00 
109048.2450       0.00 
109048.4890       0.00 
109048.7330       0.00 
109048.9770       0.00 
109049.2210       0.00 
109049.4650       0.00 
109049.7090       0.00 
109049.9530       0.00 
109050.1970       0.00 
109050.4410       0.00 
109050.6850       0.00 
109050.9290       0.00 
109051.1730       0.00 
109051.4170       0.00 
109051.6610       0.00 
109051.9050       0.00 
109052.1490       0.00 
109052.3930       0.00 
109052.6370       0.00 
109052.8810       0.00 
109053.1250       0.00 
109053.3690       0.00 
109053.6130       0.00 
109053.8570       0.00 
109054.1010       0.00 
109054.3450       0.00 
109054.5890       0.00 
109054.8330       0.00 
109055.0770       0.00 
109055.3210       0.00 
109055.5650       0.00 
109055.8090       0.00 
109056.0530       0.00 
109056.2970       0.00 
109056.5410       0.00 
109056.7850       0.00 
109057.0290       0.00 
109057.2730       0.00 
109057.5170       0.00 
109057.7610       0.00 
109058.0050       0.00 
109058.2490       0.00 
109058.4930       0.00 
109058.7370       0.00 
109058.9810       0.00 
109059.2250       0.00 
109059.4690       0.00 
109059.7130       0.00 
109059.9570       0.00 
109060.2010       0.00 
109060.4450       0.00 
109060.6890       0.00 
109060.9330       0.00 
109061.1770       0.00 
109061.4210       0.00 
109061.6650       0.00 
109061.9090       0.00 
109062.1530       0.00 
109062.3970       0.00 
109062.6410       0.00 
109062.8850       0.00 
109063.1290       0.00 
109063.3730       0.00 
109063.6170       0.00 
109063.8610       0.00 
109064.1050       0.00 
109064.3490       0.00 
109064.5930       0.00 
109064.8370       0.00 
109065.0810       0.00 
109065.3250       0.00 
109065.5690       0.00 
109065.8130       0.00 
109066.0570       0.00 
109066.3010       0.00 
109066.5450       0.00 
109066.7890       0.00 
109067.0330       0.00 
109067.2770       0.00 
109067.5210       0.00 
109067.7650       0.00 
109068.0090       0.00 
109068.2530       0.00 
109068.4970       0.00 
109068.7410       0.00 
109068.9850       0.00 
109069.2290       0.00 
109069.4730       0.00 
109069.7170       0.00 
109069.9610       0.00 
109070.2050       0.00 
109070.4490       0.00 
109070.6930       0.00 
109070.9370       0.00 
109071.1810       0.00 
109071.4250       0.00 
109071.6690       0.00 
109071.9130       0.00 
109072.1570       0.00 
109072.4010       0.00 
109072.6450       0.00 
109072.8890       0.00 
109073.1330       0.00 
109073.3770       0.00 
109073.6210       0.00 
109073.8650       0.00 
109074.1090       0.00 
109074.3530       0.00 
109074.5970       0.00 
109074.8410       0.00 
109075.0850       0.00 
109075.3290       0.00 
109075.5730       0.00 
109075.8170       0.00 
109076.0610       0.00 
109076.3050       0.00 
109076.5490       0.00 
109076.7930       0.00 
109077.0370       0.00 
109077.2810       0.00 
109077.5250       0.00 
109077.7690       0.00 
109078.0130       0.00 
109078.2570       0.00 
109078.5010       0.00 
109078.7450       0.00 
109078.9890       0.00 
109079.2330       0.00 
109079.4770       0.00 
109079.7210       0.00 
109079.9650       0.00 
109080.2090       0.00 
109080.4530       0.00 
109080.6970       0.00 
109080.9410       0.00 
109081.1850       0.00 
109081.4290       0.00 
109081.6730       0.00 
109081.9170       0.00 
109082.1610       0.00 
109082.4050       0.00 
109082.6490       0.00 
109082.8930       0.00 
109083.1370       0.00 
109083.3810       0.00 
109083.6250       0.00 
109083.8690       0.00 
109084.1130       0.00 
109084.3570       0.00 
109084.6010       0.00 
109084.8450       0.00 
109085.0890       0.00 
109085.3330       0.00 
109085.5770       0.00 
109085.8210       0.00 
109086.0650       0.00 
109086.3090       0.00 
109086.5530       0.00 
109086.7970       0.00 
109087.0410       0.00 
109087.2850       0.00 
109087.5290       0.00 
109087.7730       0.00 
109088.0170       0.00 
109088.2610       0.00 
109088.5050       0.00 
109088.7490       0.00 
109088.9930       0.00 
109089.2370       0.00 
109089.4810       0.00 
109089.7250       0.00 
109089.9690       0.00 
109090.2130       0.00 
109090.4570       0.00 
109090.7010       0.00 
109090.9450       0.00 
109091.1890       0.00 
109091.4330       0.00 
109091.6770       0.00 
109091.9210       0.00 
109092.1650       0.00 
109092.4090       0.00 
109092.6530       0.00 
109092.8970       0.00 
109093.1410       0.00 
109093.3850       0.00 
109093.6290       0.00 
109093.8730       0.00 
109094.1170       0.00 
109094.3610       0.00 
109094.6050       0.00 
109094.8490       0.00 
109095.0930       0.00 
109095.3370       0.00 
109095.5810       0.00 
109095.8250       0.00 
109096.0690       0.00 
109096.3130       0.00 
109096.5570       0.00 
109096.8010       0.00 
109097.0450       0.00 
109097.2890       0.00 
109097.5330       0.00 
109097.7770       0.00 
109098.0210       0.00 
109098.2650       0.00 
109098.5090       0.00 
109098.7530       0.00 
109098.9970       0.00 
109099.2410       0.00 
109099.4850       0.00 
109099.7290       0.00 
109099.9730       0.00 
109100.2170       0.00 
109100.4610       0.00 
109100.7050       0.00 
109100.9490       0.00 
109101.1930       0.00 
109101.4370       0.00 
109101.6810       0.00 
109101.9250       0.00 
109102.1690       0.00 
109102.4130       0.00 
109102.6570       0.00 
109102.9010       0.00 
109103.1450       0.00 
109103.3890       0.00 
109103.6330       0.00 
109103.8770       0.00 
109104.1210       0.00 
109104.3650       0.00 
109104.6090       0.00 
109104.8530       0.00 
109105.0970       0.00 
109105.3410       0.00 
109105.5850       0.00 
109105.8290       0.00 
109106.0730       0.00 
109106.3170       0.00 
109106.5610       0.00 
109106.8050       0.00 
109107.0490       0.00 
109107.2930       0.00 
109107.5370       0.00 
109107.7810       0.00 
109108.0250       0.00 
109108.2690       0.00 
109108.5130       0.00 
109108.7570       0.00 
109109.0010       0.00 
109109.2450       0.00 
109109.4890       0.00 
109109.7330       0.00 
109109.9770       0.00 
109110.2210       0.00 
109110.4650       0.00 
109110.7090       0.00 
109110.9530       0.00 
109111.1970       0.00 
109111.4410       0.00 
109111.6850       0.00 
109111.9290       0.00 
109112.1730       0.00 
109112.4170       0.00 
109112.6610       0.00 
109112.9050       0.00 
109113.1490       0.00 
109113.3930       0.00 
109113.6370       0.00 
109113.8810       0.00 
109114.1250       0.00 
109114.3690       0.00 
109114.6130       0.00 
109114.8570       0.00 
109115.1010       0.00 
109115.3450       0.00 
109115.5890       0.00 
109115.8330       0.00 
109116.0770       0.00 
109116.3210       0.00 
109116.5650       0.00 
109116.8090       0.00 
109117.0530       0.00 
109117.2970       0.00 
109117.5410       0.00 
109117.7850       0.00 
109118.0290       0.00 
109118.2730       0.00 
109118.5170       0.00 
109118.7610       0.00 
109119.0050       0.00 
109119.2490       0.00 
109119.4930       0.00 
109119.7370       0.00 
109119.9810       0.00 
109120.2250       0.00 
109120.4690       0.00 
109120.7130       0.00 
109120.9570       0.00 
109121.2010       0.00 
109121.4450       0.00 
109121.6890       0.00 
109121.9330       0.00 
109122.1770       0.00 
109122.4210       0.00 
109122.6650       0.00 
109122.9090       0.00 
109123.1530       0.00 
109123.3970       0.00 
109123.6410       0.00 
109123.8850       0.00 
109124.1290       0.00 
109124.3730       0.00 
109124.6170       0.00 
109124.8610       0.00 
109125.1050       0.00 
109125.3490       0.00 
109125.5930       0.00 
109125.8370       0.00 
109126.0810       0.00 
109126.3250       0.00 
109126.5690       0.00 
109126.8130       0.00 
109127.0570       0.00 
109127.3010       0.00 
109127.5450       0.00 
109127.7890       0.00 
109128.0330       0.00 
109128.2770       0.00 
109128.5210       0.00 
109128.7650       0.00 
109129.0090       0.00 
109129.2530       0.00 
109129.4970       0.00 
109129.7410       0.00 
109129.9850       0.00 
109130.2290       0.00 
109130.4730       0.00 
109130.7170       0.00 
109130.9610       0.00 
109131.2050       0.00 
109131.4490       0.00 
109131.6930       0.00 
109131.9370       0.00 
109132.1810       0.00 
109132.4250       0.00 
109132.6690       0.00 
109132.9130       0.00 
109133.1570       0.00 
109133.4010       0.00 
109133.6450       0.00 
109133.8890       0.00 
109134.1330       0.00 
109134.3770       0.00 
109134.6210       0.00 
109134.8650       0.01 
109135.1090       0.03 
109135.3530       0.05 
109135.5970       0.09 
109135.8410       0.14 
109136.0850       0.26 
109136.3290       0.45 
109136.5730       0.80 
109136.8170       1.42 
109137.0610       2.38 
109137.3050       3.93 
109137.5490       6.27 
109137.7930       8.77 
109138.0370      11.31 
109138.2810      12.65 
109138.5250      13.62 
109138.7690      13.44 
109139.0130      12.09 
109139.2570      10.15 
109139.5010       7.40 
109139.7450       5.15 
109139.9890       3.15 
109140.2330       1.63 
109140.4770       0.78 
109140.7210       0.33 
109140.9650       0.17 
109141.2090       0.07 
109141.4530       0.02 
109141.6970       0.01 
109141.9410       0.00 
109142.1850       0.00 
109142.4290       0.00 
109142.6730       0.00 
109142.9170       0.00 
109143.1610       0.00 
109143.4050       0.00 
109143.6490       0.00 
109143.8930       0.00 
109144.1370       0.00 
109144.3810       0.00 
109144.6250       0.00 
109144.8690       0.00 
109145.1130       0.00 
109145.3570       0.00 
109145.6010       0.00 
109145.8450       0.00 
109146.0890       0.00 
109146.3330       0.00 
109146.5770       0.00 
109146.8210       0.00 
109147.0650       0.00 
109147.3090       0.00 
109147.5530       0.00 
109147.7970       0.00 
109148.0410       0.00 
109148.2850       0.00 
109148.5290       0.00 
109148.7730       0.00 
109149.0170       0.00 
109149.2610       0.00 
109149.5050       0.00 
109149.7490       0.00 
109149.9930       0.01 
109150.2370       0.05 
109150.4810       0.13 
109150.7250       0.35 
109150.9690       0.83 
109151.2130       1.57 
109151.4570       3.05 
109151.7010       5.63 
109151.9450       8.53 
109152.1890      12.06 
109152.4330      15.42 
109152.6770      17.92 
109152.9210      19.38 
109153.1650      18.96 
109153.4090      17.13 
109153.6530      15.04 
109153.8970      11.61 
109154.1410       8.25 
109154.3850       4.59 
109154.6290       2.66 
109154.8730       1.33 
109155.1170       0.60 
109155.3610       0.25 
109155.6050       0.07 
109155.8490       0.03 
109156.0930       0.01 
109156.3370       0.00 
109156.5810       0.00 
109156.8250       0.00 
109157.0690       0.00 
109157.3130       0.00 
109157.5570       0.00 
109157.8010       0.00 
109158.0450       0.00 
109158.2890       0.00 
109158.5330       0.00 
109158.7770       0.00 
109159.0210       0.00 
109159.2650       0.00 
109159.5090       0.00 
109159.7530       0.00 
109159.9970       0.00 
109160.2410       0.00 
109160.4850       0.00 
109160.7290       0.00 
109160.9730       0.00 
109161.2170       0.00 
109161.4610       0.00 
109161.7050       0.00 
109161.9490       0.00 
109162.1930       0.00 
109162.4370       0.00 
109162.6810       0.00 
109162.9250       0.00 
109163.1690       0.00 
109163.4130       0.00 
109163.6570       0.00 
109163.9010       0.00 
109164.1450       0.00 
109164.3890       0.00 
109164.6330       0.00 
109164.8770       0.00 
109165.1210       0.00 
109165.3650       0.00 
109165.6090       0.00 
109165.8530       0.00 
109166.0970       0.00 
109166.3410       0.00 
109166.5850       0.00 
109166.8290       0.00 
109167.0730       0.00 
109167.3170       0.00 
109167.5610       0.00 
109167.8050       0.00 
109168.0490       0.00 
109168.2930       0.00 
109168.5370       0.00 
109168.7810       0.00 
109169.0250       0.00 
109169.2690       0.00 
109169.5130       0.00 
109169.7570       0.00 
109170.0010       0.00 
109170.2450       0.00 
109170.4890       0.00 
109170.7330       0.00 
109170.9770       0.00 
109171.2210       0.00 
109171.4650       0.00 
109171.7090       0.00 
109171.9530       0.00 
109172.1970       0.00 
109172.4410       0.00 
109172.6850       0.00 
109172.9290       0.00 
109173.1730       0.00 
109173.4170       0.00 
109173.6610       0.00 
109173.9050       0.00 
109174.1490       0.00 
109174.3930       0.00 
109174.6370       0.00 
109174.8810       0.00 
109175.1250       0.00 
109175.3690       0.00 
109175.6130       0.00 
109175.8570       0.00 
109176.1010       0.00 
109176.3450       0.00 
109176.5890       0.00 
109176.8330       0.00 
109177.0770       0.00 
109177.3210       0.00 
109177.5650       0.00 
109177.8090       0.00 
109178.0530       0.00 
109178.2970       0.00 
109178.5410       0.00 
109178.7850       0.00 
109179.0290       0.00 
109179.2730       0.00 
109179.5170       0.00 
109179.7610       0.00 
109180.0050       0.00 
109180.2490       0.00 
109180.4930       0.00 
109180.7370       0.00 
109180.9810       0.00 
109181.2250       0.00 
109181.4690       0.00 
109181.7130       0.00 
109181.9570       0.00 
109182.2010       0.00 
109182.4450       0.00 
109182.6890       0.00 
109182.9330       0.00 
109183.1770       0.00 
109183.4210       0.00 
109183.6650       0.00 
109183.9090       0.00 
109184.1530       0.00 
109184.3970       0.00 
109184.6410       0.00 
109184.8850       0.00 
109185.1290       0.00 
109185.3730       0.00 
109185.6170       0.00 
109185.8610       0.00 
109186.1050       0.00 
109186.3490       0.00 
109186.5930       0.00 
109186.8370       0.00 
109187.0810       0.00 
109187.3250       0.00 
109187.5690       0.00 
109187.8130       0.00 
109188.0570       0.00 
109188.3010       0.00 
109188.5450       0.00 
109188.7890       0.00 
109189.0330       0.00 
109189.2770       0.00 
109189.5210       0.00 
109189.7650       0.00 
109190.0090       0.00 
109190.2530       0.00 
109190.4970       0.00 
109190.7410       0.00 
109190.9850       0.00 
109191.2290       0.00 
109191.4730       0.00 
109191.7170       0.00 
109191.9610       0.00 
109192.2050       0.00 
109192.4490       0.00 
109192.6930       0.00 
109192.9370       0.00 
109193.1810       0.00 
109193.4250       0.00 
109193.6690       0.00 
109193.9130       0.00 
109194.1570       0.00 
109194.4010       0.00 
109194.6450       0.00 
109194.8890       0.00 
109195.1330       0.00 
109195.3770       0.00 
109195.6210       0.00 
109195.8650       0.00 
109196.1090       0.00 
109196.3530       0.00 
109196.5970       0.00 
109196.8410       0.00 
109197.0850       0.00 
109197.3290       0.00 
109197.5730       0.00 
109197.8170       0.00 
109198.0610       0.00 
109198.3050       0.00 
109198.5490       0.00 
109198.7930       0.00 
109199.0370       0.00 
109199.2810       0.00 
109199.5250       0.00 
109199.7690       0.00 
109200.0130       0.00 
109200.2570       0.00 
109200.5010       0.00 
109200.7450       0.00 
109200.9890       0.00 
109201.2330       0.00 
109201.4770       0.00 
109201.7210       0.00 
109201.9650       0.00 
109202.2090       0.00 
109202.4530       0.00 
109202.6970       0.00 
109202.9410       0.00 
109203.1850       0.00 
109203.4290       0.00 
109203.6730       0.00 
109203.9170       0.00 
109204.1610       0.00 
109204.4050       0.00 
109204.6490       0.00 
109204.8930       0.00 
109205.1370       0.00 
109205.3810       0.00 
109205.6250       0.00 
109205.8690       0.00 
109206.1130       0.00 
109206.3570       0.00 
109206.6010       0.00 
109206.8450       0.00 
109207.0890       0.00 
109207.3330       0.00 
109207.5770       0.00 
109207.8210       0.00 
109208.0650       0.00 
109208.3090       0.00 
109208.5530       0.00 
109208.7970       0.00 
109209.0410       0.00 
109209.2850       0.00 
109209.5290       0.00 
109209.7730       0.00 
109210.0170       0.00 
109210.2610       0.00 
109210.5050       0.00 
109210.7490       0.00 
109210.9930       0.00 
109211.2370       0.00 
109211.4810       0.00 
109211.7250       0.00 
109211.9690       0.00 
109212.2130       0.00 
109212.4570       0.00 
109212.7010       0.00 
109212.9450       0.00 
109213.1890       0.00 
109213.4330       0.00 
109213.6770       0.00 
109213.9210       0.00 
109214.1650       0.00 
109214.4090       0.00 
109214.6530       0.00 
109214.8970       0.00 
109215.1410       0.00 
109215.3850       0.00 
109215.6290       0.00 
109215.8730       0.00 
109216.1170       0.00 
109216.3610       0.00 
109216.6050       0.00 
109216.8490       0.00 
109217.0930       0.00 
109217.3370       0.00 
109217.5810       0.00 
109217.8250       0.00 
109218.0690       0.00 
109218.3130       0.00 
109218.5570       0.00 
109218.8010       0.00 
109219.0450       0.00 
109219.2890       0.00 
109219.5330       0.00 
109219.7770       0.00 
109220.0210       0.00 
109220.2650       0.00 
109220.5090       0.00 
109220.7530       0.00 
109220.9970       0.00 
109221.2410       0.00 
109221.4850       0.00 
109221.7290       0.00 
109221.9730       0.00 
109222.2170       0.00 
109222.4610       0.00 
109222.7050       0.00 
109222.9490       0.00 
109223.1930       0.00 
109223.4370       0.00 
109223.6810       0.00 
109223.9250       0.00 
109224.1690       0.00 
109224.4130       0.00 
109224.6570       0.00 
109224.9010       0.00 
109225.1450       0.00 
109225.3890       0.00 
109225.6330       0.00 
109225.8770       0.00 
109226.1210       0.00 
109226.3650       0.00 
109226.6090       0.00 
109226.8530       0.00 
109227.0970       0.00 
109227.3410       0.00 
109227.5850       0.00 
109227.8290       0.00 
109228.0730       0.00 
109228.3170       0.00 
109228.5610       0.00 
109228.8050       0.00 
109229.0490       0.00 
109229.2930       0.00 
109229.5370       0.00 
109229.7810       0.00 
109230.0250       0.00 
109230.2690       0.00 
109230.5130       0.00 
109230.7570       0.00 
109231.0010       0.00 
109231.2450       0.00 
109231.4890       0.00 
109231.7330       0.00 
109231.9770       0.00 
109232.2210       0.00 
109232.4650       0.00 
109232.7090       0.00 
109232.9530       0.00 
109233.1970       0.00 
109233.4410       0.00 
109233.6850       0.00 
109233.9290       0.00 
109234.1730       0.00 
109234.4170       0.00 
109234.6610       0.00 
109234.9050       0.00 
109235.1490       0.00 
109235.3930       0.00 
109235.6370       0.00 
109235.8810       0.00 
109236.1250       0.00 
109236.3690       0.00 
109236.6130       0.00 
109236.8570       0.00 
109237.1010       0.00 
109237.3450       0.00 
109237.5890       0.00 
109237.8330       0.00 
109238.0770       0.00 
109238.3210       0.00 
109238.5650       0.00 
109238.8090       0.00 
109239.0530       0.00 
109239.2970       0.00 
109239.5410       0.00 
109239.7850       0.00 
109240.0290       0.00 
109240.2730       0.00 
109240.5170       0.00 
109240.7610       0.00 
109241.0050       0.00 
109241.2490       0.00 
109241.4930       0.00 
109241.7370       0.00 
109241.9810       0.00 
109242.2250       0.00 
109242.4690       0.00 
109242.7130       0.00 
109242.9570       0.00 
109243.2010       0.00 
109243.4450       0.00 
109243.6890       0.00 
109243.9330       0.00 
109244.1770       0.00 
109244.4210       0.00 
109244.6650       0.00 
109244.9090       0.00 
109245.1530       0.00 
109245.3970       0.00 
109245.6410       0.00 
109245.8850       0.00 
109246.1290       0.00 
109246.3730       0.00 
109246.6170       0.00 
109246.8610       0.00 
109247.1050       0.00 
109247.3490       0.00 
109247.5930       0.00 
109247.8370       0.00 
109248.0810       0.00 
109248.3250       0.00 
109248.5690       0.00 
109248.8130       0.00 
109249.0570       0.00 
109249.3010       0.00 
109249.5450       0.00 
109249.7890       0.00 
109250.0330       0.00 
109250.2770       0.00 
109250.5210       0.00 
109250.7650       0.00 
109251.0090       0.00 
109251.2530       0.00 
109251.4970       0.00 
109251.7410       0.00 
109251.9850       0.00 
109252.2290       0.00 
109252.4730       0.00 
109252.7170       0.00 
109252.9610       0.00 
109253.2050       0.00 
109253.4490       0.00 
109253.6930       0.00 
109253.9370       0.00 
109254.1810       0.00 
109254.4250       0.00 
109254.6690       0.00 
109254.9130       0.00 
109255.1570       0.00 
109255.4010       0.00 
109255.6450       0.00 
109255.8890       0.00 
109256.1330       0.00 
109256.3770       0.00 
109256.6210       0.00 
109256.8650       0.00 
109257.1090       0.00 
109257.3530       0.00 
109257.5970       0.00 
109257.8410       0.00 
109258.0850       0.00 
109258.3290       0.00 
109258.5730       0.00 
109258.8170       0.00 
109259.0610       0.00 
109259.3050       0.00 
109259.5490       0.00 
109259.7930       0.00 
109260.0370       0.00 
109260.2810       0.00 
109260.5250       0.00 
109260.7690       0.00 
109261.0130       0.00 
109261.2570       0.00 
109261.5010       0.00 
109261.7450       0.00 
109261.9890       0.00 
109262.2330       0.00 
109262.4770       0.00 
109262.7210       0.00 
109262.9650       0.00 
109263.2090       0.00 
109263.4530       0.00 
109263.6970       0.00 
109263.9410       0.00 
109264.1850       0.00 
109264.4290       0.00 
109264.6730       0.00 
109264.9170       0.00 
109265.1610       0.00 
109265.4050       0.00 
109265.6490       0.00 
109265.8930       0.00 
109266.1370       0.00 
109266.3810       0.00 
109266.6250       0.00 
109266.8690       0.00 
109267.1130       0.00 
109267.3570       0.00 
109267.6010       0.00 
109267.8450       0.00 
109268.0890       0.00 
109268.3330       0.00 
109268.5770       0.00 
109268.8210       0.00 
109269.0650       0.00 
109269.3090       0.00 
109269.5530       0.00 
109269.7970       0.00 
109270.0410       0.00 
109270.2850       0.00 
109270.5290       0.00 
109270.7730       0.00 
109271.0170       0.00 
109271.2610       0.00 
109271.5050       0.00 
109271.7490       0.00 
109271.9930       0.00 
109272.2370       0.00 
109272.4810       0.00 
109272.7250       0.00 
109272.9690       0.00 
109273.2130       0.00 
109273.4570       0.00 
109273.7010       0.00 
109273.9450       0.00 
109274.1890       0.00 
109274.4330       0.00 
109274.6770       0.00 
109274.9210       0.00 
109275.1650       0.00 
109275.4090       0.00 
109275.6530       0.00 
109275.8970       0.00 
109276.1410       0.00 
109276.3850       0.00 
109276.6290       0.00 
109276.8730       0.00 
109277.1170       0.00 
109277.3610       0.00 
109277.6050       0.00 
109277.8490       0.00 
109278.0930       0.00 
109278.3370       0.00 
109278.5810       0.00 
109278.8250       0.00 
109279.0690       0.00 
109279.3130       0.00 
109279.5570       0.00 
109279.8010       0.00 
109280.0450       0.00 
109280.2890       0.00 
109280.5330       0.00 
109280.7770       0.00 
109281.0210       0.00 
109281.2650       0.00 
109281.5090       0.00 
109281.7530       0.00 
109281.9970       0.00 
109282.2410       0.00 
109282.4850       0.00 
109282.7290       0.00 
109282.9730       0.00 
109283.2170       0.00 
109283.4610       0.00 
109283.7050       0.00 
109283.9490       0.00 
109284.1930       0.00 
109284.4370       0.00 
109284.6810       0.00 
109284.9250       0.00 
109285.1690       0.00 
109285.4130       0.00 
109285.6570       0.00 
109285.9010       0.00 
109286.1450       0.00 
109286.3890       0.00 
109286.6330       0.00 
109286.8770       0.00 
109287.1210       0.00 
109287.3650       0.00 
109287.6090       0.00 
109287.8530       0.00 
109288.0970       0.00 
109288.3410       0.00 
109288.5850       0.00 
109288.8290       0.00 
109289.0730       0.00 
109289.3170       0.00 
109289.5610       0.00 
109289.8050       0.00 
109290.0490       0.00 
109290.2930       0.00 
109290.5370       0.00 
109290.7810       0.00 
109291.0250       0.00 
109291.2690       0.00 
109291.5130       0.00 
109291.7570       0.00 
109292.0010       0.00 
109292.2450       0.00 
109292.4890       0.00 
109292.7330       0.00 
109292.9770       0.00 
109293.2210       0.00 
109293.4650       0.00 
109293.7090       0.00 
109293.9530       0.00 
109294.1970       0.00 
109294.4410       0.00 
109294.6850       0.00 
109294.9290       0.00 
109295.1730       0.00 
109295.4170       0.00 
109295.6610       0.00 
109295.9050       0.00 
109296.1490       0.00 
109296.3930       0.00 
109296.6370       0.00 
109296.8810       0.00 
109297.1250       0.00 
109297.3690       0.00 
109297.6130       0.00 
109297.8570       0.00 
109298.1010       0.00 
109298.3450       0.00 
109298.5890       0.00 
109298.8330       0.00 
109299.0770       0.00 
109299.3210       0.00 
109299.5650       0.00 
109299.8090       0.00 
109300.0530       0.00 
109300.2970       0.00 
109300.5410       0.00 
109300.7850       0.00 
109301.0290       0.00 
109301.2730       0.00 
109301.5170       0.00 
109301.7610       0.00 
109302.0050       0.00 
109302.2490       0.00 
109302.4930       0.00 
109302.7370       0.00 
109302.9810       0.00 
109303.2250       0.00 
109303.4690       0.00 
109303.7130       0.00 
109303.9570       0.00 
109304.2010       0.00 
109304.4450       0.00 
109304.6890       0.00 
109304.9330       0.00 
109305.1770       0.00 
109305.4210       0.00 
109305.6650       0.00 
109305.9090       0.00 
109306.1530       0.00 
109306.3970       0.00 
109306.6410       0.00 
109306.8850       0.00 
109307.1290       0.00 
109307.3730       0.00 
109307.6170       0.00 
109307.8610       0.00 
109308.1050       0.00 
109308.3490       0.00 
109308.5930       0.00 
109308.8370       0.00 
109309.0810       0.00 
109309.3250       0.00 
109309.5690       0.00 
109309.8130       0.00 
109310.0570       0.00 
109310.3010       0.00 
109310.5450       0.00 
109310.7890       0.00 
109311.0330       0.00 
109311.2770       0.00 
109311.5210       0.00 
109311.7650       0.00 
109312.0090       0.00 
109312.2530       0.00 
109312.4970       0.00 
109312.7410       0.00 
109312.9850       0.00 
109313.2290       0.00 
109313.4730       0.00 
109313.7170       0.00 
109313.9610       0.00 
109314.2050       0.00 
109314.4490       0.00 
109314.6930       0.00 
109314.9370       0.00 
109315.1810       0.00 
109315.4250       0.00 
109315.6690       0.00 
109315.9130       0.00 
109316.1570       0.00 
109316.4010       0.00 
109316.6450       0.00 
109316.8890       0.00 
109317.1330       0.00 
109317.3770       0.00 
109317.6210       0.00 
109317.8650       0.00 
109318.1090       0.00 
109318.3530       0.00 
109318.5970       0.00 
109318.8410       0.00 
109319.0850       0.00 
109319.3290       0.00 
109319.5730       0.00 
109319.8170       0.00 
109320.0610       0.00 
109320.3050       0.00 
109320.5490       0.00 
109320.7930       0.00 
109321.0370       0.00 
109321.2810       0.00 
109321.5250       0.00 
109321.7690       0.00 
109322.0130       0.00 
109322.2570       0.00 
109322.5010       0.00 
109322.7450       0.00 
109322.9890       0.00 
109323.2330       0.00 
109323.4770       0.00 
109323.7210       0.00 
109323.9650       0.00 
109324.2090       0.00 
109324.4530       0.00 
109324.6970       0.00 
109324.9410       0.00 
109325.1850       0.00 
109325.4290       0.00 
109325.6730       0.00 
109325.9170       0.00 
109326.1610       0.00 
109326.4050       0.00 
109326.6490       0.00 
109326.8930       0.00 
109327.1370       0.00 
109327.3810       0.00 
109327.6250       0.00 
109327.8690       0.00 
109328.1130       0.00 
109328.3570       0.00 
109328.6010       0.00 
109328.8450       0.00 
109329.0890       0.00 
109329.3330       0.00 
109329.5770       0.00 
109329.8210       0.00 
109330.0650       0.00 
109330.3090       0.00 
109330.5530       0.00 
109330.7970       0.00 
109331.0410       0.00 
109331.2850       0.00 
109331.5290       0.00 
109331.7730       0.00 
109332.0170       0.00 
109332.2610       0.00 
109332.5050       0.00 
109332.7490       0.00 
109332.9930       0.00 
109333.2370       0.00 
109333.4810       0.00 
109333.7250       0.00 
109333.9690       0.00 
109334.2130       0.00 
109334.4570       0.00 
109334.7010       0.00 
109334.9450       0.00 
109335.1890       0.00 
109335.4330       0.00 
109335.6770       0.00 
109335.9210       0.00 
109336.1650       0.00 
109336.4090       0.00 
109336.6530       0.00 
109336.8970       0.00 
109337.1410       0.00 
109337.3850       0.00 
109337.6290       0.00 
109337.8730       0.00 
109338.1170       0.00 
109338.3610       0.00 
109338.6050       0.00 
109338.8490       0.00 
109339.0930       0.00 
109339.3370       0.00 
109339.5810       0.00 
109339.8250       0.00 
109340.0690       0.00 
109340.3130       0.00 
109340.5570       0.00 
109340.8010       0.00 
109341.0450       0.00 
109341.2890       0.00 
109341.5330       0.00 
109341.7770       0.00 
109342.0210       0.00 
109342.2650       0.00 
109342.5090       0.00 
109342.7530       0.00 
109342.9970       0.00 
109343.2410       0.00 
109343.4850       0.00 
109343.7290       0.00 
109343.9730       0.00 
109344.2170       0.00 
109344.4610       0.00 
109344.7050       0.00 
109344.9490       0.00 
109345.1930       0.00 
109345.4370       0.00 
109345.6810       0.00 
109345.9250       0.00 
109346.1690       0.00 
109346.4130       0.00 
109346.6570       0.00 
109346.9010       0.00 
109347.1450       0.00 
109347.3890       0.00 
109347.6330       0.00 
109347.8770       0.00 
109348.1210       0.00 
109348.3650       0.00 
109348.6090       0.00 
109348.8530       0.00 
109349.0970       0.00 
109349.3410       0.00 
109349.5850       0.00 
109349.8290       0.00 
109350.0730       0.00 
109350.3170       0.00 
109350.5610       0.00 
109350.8050       0.00 
109351.0490       0.00 
109351.2930       0.00 
109351.5370       0.00 
109351.7810       0.00 
109352.0250       0.00 
109352.2690       0.00 
109352.5130       0.00 
109352.7570       0.00 
109353.0010       0.00 
109353.2450       0.00 
109353.4890       0.00 
109353.7330       0.00 
109353.9770       0.00 
109354.2210       0.00 
109354.4650       0.00 
109354.7090       0.00 
109354.9530       0.00 
109355.1970       0.00 
109355.4410       0.00 
109355.6850       0.00 
109355.9290       0.00 
109356.1730       0.00 
109356.4170       0.00 
109356.6610       0.00 
109356.9050       0.00 
109357.1490       0.00 
109357.3930       0.00 
109357.6370       0.00 
109357.8810       0.00 
109358.1250       0.00 
109358.3690       0.00 
109358.6130       0.00 
109358.8570       0.00 
109359.1010       0.00 
109359.3450       0.00 
109359.5890       0.00 
109359.8330       0.00 
109360.0770       0.00 
109360.3210       0.00 
109360.5650       0.00 
109360.8090       0.00 
109361.0530       0.00 
109361.2970       0.00 
109361.5410       0.00 
109361.7850       0.00 
109362.0290       0.00 
109362.2730       0.00 
109362.5170       0.00 
109362.7610       0.00 
109363.0050       0.00 
109363.2490       0.00 
109363.4930       0.00 
109363.7370       0.00 
109363.9810       0.00 
109364.2250       0.00 
109364.4690       0.00 
109364.7130       0.00 
109364.9570       0.00 
109365.2010       0.00 
109365.4450       0.00 
109365.6890       0.00 
109365.9330       0.00 
109366.1770       0.00 
109366.4210       0.00 
109366.6650       0.00 
109366.9090       0.00 
109367.1530       0.00 
109367.3970       0.00 
109367.6410       0.00 
109367.8850       0.00 
109368.1290       0.00 
109368.3730       0.00 
109368.6170       0.00 
109368.8610       0.00 
109369.1050       0.00 
109369.3490       0.00 
109369.5930       0.00 
109369.8370       0.00 
109370.0810       0.00 
109370.3250       0.00 
109370.5690       0.00 
109370.8130       0.00 
109371.0570       0.00 
109371.3010       0.00 
109371.5450       0.00 
109371.7890       0.00 
109372.0330       0.00 
109372.2770       0.00 
109372.5210       0.00 
109372.7650       0.00 
109373.0090       0.00 
109373.2530       0.00 
109373.4970       0.00 
109373.7410       0.00 
109373.9850       0.00 
109374.2290       0.00 
109374.4730       0.00 
109374.7170       0.00 
109374.9610       0.00 
109375.2050       0.00 
109375.4490       0.00 
109375.6930       0.00 
109375.9370       0.00 
109376.1810       0.00 
109376.4250       0.00 
109376.6690       0.00 
109376.9130       0.00 
109377.1570       0.00 
109377.4010       0.00 
109377.6450       0.00 
109377.8890       0.00 
109378.1330       0.00 
109378.3770       0.00 
109378.6210       0.00 
109378.8650       0.00 
109379.1090       0.00 
109379.3530       0.00 
109379.5970       0.00 
109379.8410       0.00 
109380.0850       0.00 
109380.3290       0.00 
109380.5730       0.00 
109380.8170       0.00 
109381.0610       0.00 
109381.3050       0.00 
109381.5490       0.00 
109381.7930       0.00 
109382.0370       0.00 
109382.2810       0.00 
109382.5250       0.00 
109382.7690       0.00 
109383.0130       0.00 
109383.2570       0.00 
109383.5010       0.00 
109383.7450       0.00 
109383.9890       0.00 
109384.2330       0.00 
109384.4770       0.00 
109384.7210       0.00 
109384.9650       0.00 
109385.2090       0.00 
109385.4530       0.00 
109385.6970       0.00 
109385.9410       0.00 
109386.1850       0.00 
109386.4290       0.00 
109386.6730       0.00 
109386.9170       0.00 
109387.1610       0.00 
109387.4050       0.00 
109387.6490       0.00 
109387.8930       0.00 
109388.1370       0.00 
109388.3810       0.00 
109388.6250       0.00 
109388.8690       0.00 
109389.1130       0.00 
